Raman Shift ; Dark Subtracted #1
-2.0000;6482.3090
-1.0000;5982.8540
0.0000;5258.3580
1.0000;4366.7320
2.0000;3382.6260
3.0000;2435.8600
4.0000;1669.9140
5.0000;1030.1150
6.0000;605.7625
7.0000;471.3816
8.0000;380.6827
9.0000;329.8504
10.0000;369.9991
11.0000;355.4501
12.0000;229.2811
13.0000;97.0768
14.0000;2.6193
15.0000;-23.2250
16.0000;0.9088
17.0000;23.8797
18.0000;22.0732
19.0000;20.5796
20.0000;19.9999
21.0000;21.0475
22.0000;22.6610
23.0000;23.2135
24.0000;21.5671
25.0000;18.8491
26.0000;15.9081
27.0000;13.0013
28.0000;11.1885
29.0000;11.1787
30.0000;13.8579
31.0000;18.1600
32.0000;21.6328
33.0000;22.1813
34.0000;20.8409
35.0000;19.4067
36.0000;20.2234
37.0000;21.2518
38.0000;21.2319
39.0000;18.0309
40.0000;13.5749
41.0000;10.3962
42.0000;10.7322
43.0000;13.9159
44.0000;17.6185
45.0000;19.8014
46.0000;20.7802
47.0000;20.8424
48.0000;20.7336
49.0000;19.7156
50.0000;18.0007
51.0000;15.5781
52.0000;12.9169
53.0000;10.8491
54.0000;9.4686
55.0000;9.5798
56.0000;11.1139
57.0000;13.1098
58.0000;16.2660
59.0000;20.9945
60.0000;27.2919
61.0000;34.7499
62.0000;43.5425
63.0000;55.6835
64.0000;67.9442
65.0000;78.7637
66.0000;86.3650
67.0000;89.8317
68.0000;95.6833
69.0000;112.2178
70.0000;136.5717
71.0000;163.7165
72.0000;191.4938
73.0000;215.4496
74.0000;237.4756
75.0000;264.8945
76.0000;290.2983
77.0000;314.9737
78.0000;346.8480
79.0000;379.2382
80.0000;408.6462
81.0000;438.0250
82.0000;461.1467
83.0000;483.7205
84.0000;518.1343
85.0000;558.9155
86.0000;599.5949
87.0000;641.9357
88.0000;678.2369
89.0000;712.1580
90.0000;755.6174
91.0000;801.7584
92.0000;844.5535
93.0000;889.1827
94.0000;927.3104
95.0000;963.2055
96.0000;1011.4890
97.0000;1066.0630
98.0000;1118.9150
99.0000;1177.1760
100.0000;1232.8270
101.0000;1276.7440
102.0000;1321.2780
103.0000;1357.3250
104.0000;1385.6290
105.0000;1421.0210
106.0000;1458.8760
107.0000;1495.4020
108.0000;1542.7070
109.0000;1592.1880
110.0000;1636.6700
111.0000;1681.2160
112.0000;1718.8590
113.0000;1745.7080
114.0000;1776.1630
115.0000;1805.3470
116.0000;1830.6130
117.0000;1861.5790
118.0000;1895.2250
119.0000;1924.5950
120.0000;1951.5010
121.0000;1971.5390
122.0000;1984.7530
123.0000;1999.5680
124.0000;2013.9810
125.0000;2028.6330
126.0000;2051.9690
127.0000;2082.9240
128.0000;2112.1150
129.0000;2134.0490
130.0000;2144.0150
131.0000;2146.5640
132.0000;2153.6570
133.0000;2164.9690
134.0000;2177.0070
135.0000;2191.4800
136.0000;2207.0730
137.0000;2220.7330
138.0000;2231.8340
139.0000;2238.3160
140.0000;2241.8900
141.0000;2249.8680
142.0000;2262.2580
143.0000;2272.4950
144.0000;2277.8950
145.0000;2275.8770
146.0000;2272.9640
147.0000;2279.1540
148.0000;2295.1120
149.0000;2311.6870
150.0000;2319.6050
151.0000;2316.0210
152.0000;2309.1200
153.0000;2309.3150
154.0000;2317.9580
155.0000;2327.5140
156.0000;2333.2550
157.0000;2333.1470
158.0000;2329.9640
159.0000;2327.4880
160.0000;2325.6070
161.0000;2323.8230
162.0000;2321.6000
163.0000;2319.5750
164.0000;2319.2440
165.0000;2321.3150
166.0000;2326.3630
167.0000;2333.2730
168.0000;2341.8300
169.0000;2350.4640
170.0000;2358.1400
171.0000;2363.7530
172.0000;2366.1090
173.0000;2367.6390
174.0000;2373.8710
175.0000;2383.2090
176.0000;2390.6980
177.0000;2393.2950
178.0000;2389.9570
179.0000;2385.7530
180.0000;2387.0320
181.0000;2393.2990
182.0000;2401.0200
183.0000;2408.3460
184.0000;2414.0940
185.0000;2418.4520
186.0000;2422.9990
187.0000;2425.9600
188.0000;2428.1780
189.0000;2432.5380
190.0000;2436.7510
191.0000;2438.7530
192.0000;2437.0040
193.0000;2431.5020
194.0000;2424.9540
195.0000;2419.9110
196.0000;2417.0390
197.0000;2416.9900
198.0000;2420.1370
199.0000;2426.4300
200.0000;2432.0660
201.0000;2433.6360
202.0000;2431.4110
203.0000;2427.6340
204.0000;2424.0820
205.0000;2420.8960
206.0000;2419.7500
207.0000;2421.6670
208.0000;2426.7020
209.0000;2432.5780
210.0000;2437.4940
211.0000;2441.1220
212.0000;2444.0240
213.0000;2446.7040
214.0000;2448.2520
215.0000;2450.3000
216.0000;2453.5290
217.0000;2457.9820
218.0000;2464.8200
219.0000;2477.4690
220.0000;2490.9570
221.0000;2501.5960
222.0000;2506.9140
223.0000;2506.8680
224.0000;2506.1980
225.0000;2508.7400
226.0000;2511.4800
227.0000;2515.0450
228.0000;2519.5240
229.0000;2524.3200
230.0000;2529.9160
231.0000;2536.3510
232.0000;2542.4960
233.0000;2548.3550
234.0000;2553.5010
235.0000;2557.5580
236.0000;2562.6830
237.0000;2570.1660
238.0000;2576.9230
239.0000;2582.8000
240.0000;2587.2640
241.0000;2588.4920
242.0000;2587.0970
243.0000;2582.3660
244.0000;2576.6880
245.0000;2574.2880
246.0000;2576.9770
247.0000;2581.2500
248.0000;2582.9380
249.0000;2581.0020
250.0000;2578.5210
251.0000;2577.8970
252.0000;2579.7870
253.0000;2583.1710
254.0000;2587.2300
255.0000;2591.5640
256.0000;2595.6860
257.0000;2599.7880
258.0000;2602.8530
259.0000;2604.5790
260.0000;2605.2690
261.0000;2604.5440
262.0000;2604.2610
263.0000;2606.3960
264.0000;2610.8990
265.0000;2617.4780
266.0000;2627.4340
267.0000;2638.4130
268.0000;2646.8240
269.0000;2650.0770
270.0000;2647.4990
271.0000;2644.3480
272.0000;2646.8890
273.0000;2652.1470
274.0000;2657.6190
275.0000;2661.1320
276.0000;2663.1850
277.0000;2665.6000
278.0000;2670.1140
279.0000;2675.3770
280.0000;2681.8220
281.0000;2690.9800
282.0000;2699.6000
283.0000;2706.2640
284.0000;2709.5750
285.0000;2710.0260
286.0000;2712.2780
287.0000;2720.5850
288.0000;2728.6290
289.0000;2731.9660
290.0000;2726.1920
291.0000;2718.1220
292.0000;2716.7010
293.0000;2726.6550
294.0000;2740.0600
295.0000;2749.0760
296.0000;2749.9560
297.0000;2747.0020
298.0000;2746.1390
299.0000;2748.4210
300.0000;2750.4810
301.0000;2749.6850
302.0000;2745.6840
303.0000;2743.1720
304.0000;2747.0130
305.0000;2757.4910
306.0000;2769.5230
307.0000;2778.1190
308.0000;2782.1810
309.0000;2785.1740
310.0000;2793.0990
311.0000;2802.7260
312.0000;2810.4710
313.0000;2814.3110
314.0000;2813.3440
315.0000;2811.9720
316.0000;2815.6800
317.0000;2821.4690
318.0000;2827.0240
319.0000;2831.2490
320.0000;2833.1890
321.0000;2834.0560
322.0000;2835.1430
323.0000;2835.3250
324.0000;2835.7420
325.0000;2837.2010
326.0000;2839.0490
327.0000;2841.1990
328.0000;2843.4030
329.0000;2845.7710
330.0000;2849.0590
331.0000;2853.3340
332.0000;2858.2700
333.0000;2864.1290
334.0000;2870.7880
335.0000;2876.8110
336.0000;2882.5840
337.0000;2886.8130
338.0000;2889.5160
339.0000;2892.3850
340.0000;2894.9240
341.0000;2897.5230
342.0000;2902.1390
343.0000;2908.4070
344.0000;2915.2580
345.0000;2924.1700
346.0000;2933.2840
347.0000;2939.5730
348.0000;2942.4190
349.0000;2940.4240
350.0000;2937.4610
351.0000;2938.0590
352.0000;2940.6210
353.0000;2943.8110
354.0000;2947.0940
355.0000;2950.1690
356.0000;2952.6960
357.0000;2955.2970
358.0000;2956.6650
359.0000;2957.3220
360.0000;2957.6110
361.0000;2957.1480
362.0000;2956.7040
363.0000;2956.3980
364.0000;2956.8970
365.0000;2959.4080
366.0000;2964.5330
367.0000;2970.0410
368.0000;2973.5230
369.0000;2973.9370
370.0000;2971.8510
371.0000;2968.4070
372.0000;2963.5940
373.0000;2960.9210
374.0000;2964.1450
375.0000;2973.4380
376.0000;2984.1770
377.0000;2990.5080
378.0000;2992.3160
379.0000;2993.3310
380.0000;2998.0440
381.0000;3004.3520
382.0000;3011.8450
383.0000;3021.9200
384.0000;3031.4950
385.0000;3040.0000
386.0000;3048.7910
387.0000;3053.5590
388.0000;3055.5330
389.0000;3055.5460
390.0000;3052.3660
391.0000;3049.0230
392.0000;3046.5360
393.0000;3045.6560
394.0000;3047.4990
395.0000;3052.6830
396.0000;3060.0150
397.0000;3067.3340
398.0000;3073.9020
399.0000;3078.2690
400.0000;3079.9770
401.0000;3078.0990
402.0000;3076.3760
403.0000;3079.8160
404.0000;3088.2500
405.0000;3098.2040
406.0000;3108.4190
407.0000;3116.7740
408.0000;3123.8040
409.0000;3131.3020
410.0000;3136.0160
411.0000;3139.1230
412.0000;3143.7890
413.0000;3146.2050
414.0000;3145.8270
415.0000;3141.1960
416.0000;3135.2190
417.0000;3133.8590
418.0000;3140.9080
419.0000;3152.5970
420.0000;3163.3590
421.0000;3169.8830
422.0000;3174.2960
423.0000;3180.2460
424.0000;3187.4720
425.0000;3192.5180
426.0000;3194.1850
427.0000;3191.1430
428.0000;3186.2760
429.0000;3183.1160
430.0000;3182.0400
431.0000;3182.5010
432.0000;3183.9890
433.0000;3186.8480
434.0000;3190.1350
435.0000;3193.4400
436.0000;3195.9520
437.0000;3196.8840
438.0000;3194.3370
439.0000;3191.1270
440.0000;3191.7240
441.0000;3200.2060
442.0000;3212.1160
443.0000;3221.9960
444.0000;3226.9160
445.0000;3229.1120
446.0000;3233.9520
447.0000;3242.3780
448.0000;3249.2890
449.0000;3252.5430
450.0000;3250.3360
451.0000;3247.1940
452.0000;3249.6380
453.0000;3256.7600
454.0000;3263.8140
455.0000;3267.4860
456.0000;3267.5620
457.0000;3267.2410
458.0000;3268.5170
459.0000;3271.6590
460.0000;3278.5120
461.0000;3292.3290
462.0000;3308.7900
463.0000;3323.9470
464.0000;3335.0620
465.0000;3341.4170
466.0000;3347.5170
467.0000;3353.8630
468.0000;3359.6130
469.0000;3368.7500
470.0000;3381.6450
471.0000;3394.2020
472.0000;3404.9710
473.0000;3411.7290
474.0000;3418.2510
475.0000;3432.0330
476.0000;3449.0400
477.0000;3464.4320
478.0000;3478.1290
479.0000;3485.3360
480.0000;3487.5000
481.0000;3489.6730
482.0000;3486.3270
483.0000;3479.7270
484.0000;3471.1810
485.0000;3461.4480
486.0000;3452.5100
487.0000;3445.7660
488.0000;3442.4380
489.0000;3440.9370
490.0000;3441.9270
491.0000;3444.2630
492.0000;3444.4750
493.0000;3442.4300
494.0000;3439.7290
495.0000;3437.0980
496.0000;3435.0910
497.0000;3434.2880
498.0000;3434.7260
499.0000;3436.8460
500.0000;3439.7000
501.0000;3442.7700
502.0000;3445.4710
503.0000;3447.2620
504.0000;3447.8740
505.0000;3447.0420
506.0000;3445.9010
507.0000;3445.0150
508.0000;3443.7430
509.0000;3441.2590
510.0000;3437.5350
511.0000;3436.1290
512.0000;3440.4550
513.0000;3450.6630
514.0000;3461.6120
515.0000;3468.1940
516.0000;3469.9380
517.0000;3470.9160
518.0000;3476.1370
519.0000;3482.3510
520.0000;3488.4690
521.0000;3493.5940
522.0000;3497.7560
523.0000;3503.6980
524.0000;3513.6960
525.0000;3523.0870
526.0000;3530.5710
527.0000;3534.2650
528.0000;3535.8090
529.0000;3539.7920
530.0000;3545.6390
531.0000;3552.2490
532.0000;3560.5830
533.0000;3568.9910
534.0000;3576.8000
535.0000;3584.5140
536.0000;3589.9920
537.0000;3594.5000
538.0000;3599.9530
539.0000;3604.4960
540.0000;3610.9770
541.0000;3621.0030
542.0000;3632.2560
543.0000;3644.3840
544.0000;3656.7920
545.0000;3666.6830
546.0000;3674.9120
547.0000;3678.9880
548.0000;3681.5380
549.0000;3689.0970
550.0000;3698.9580
551.0000;3707.9100
552.0000;3713.6100
553.0000;3716.1010
554.0000;3720.7000
555.0000;3737.1180
556.0000;3754.8630
557.0000;3763.8170
558.0000;3756.3960
559.0000;3741.1910
560.0000;3735.2580
561.0000;3745.7860
562.0000;3760.2870
563.0000;3764.9720
564.0000;3757.4320
565.0000;3746.6500
566.0000;3742.1990
567.0000;3744.0440
568.0000;3748.9170
569.0000;3755.0200
570.0000;3761.6450
571.0000;3765.1360
572.0000;3762.3670
573.0000;3755.8320
574.0000;3751.0850
575.0000;3751.9520
576.0000;3755.2340
577.0000;3757.6230
578.0000;3757.8570
579.0000;3756.8680
580.0000;3755.0660
581.0000;3752.5220
582.0000;3750.2580
583.0000;3748.7470
584.0000;3748.8990
585.0000;3751.3690
586.0000;3759.0330
587.0000;3767.4140
588.0000;3770.1730
589.0000;3760.4860
590.0000;3745.5600
591.0000;3737.3310
592.0000;3742.1560
593.0000;3752.0150
594.0000;3758.5210
595.0000;3758.9970
596.0000;3754.2870
597.0000;3742.8360
598.0000;3726.1120
599.0000;3715.1430
600.0000;3719.9670
601.0000;3737.2070
602.0000;3753.3460
603.0000;3755.0040
604.0000;3748.4630
605.0000;3741.8510
606.0000;3740.0800
607.0000;3740.4150
608.0000;3741.8230
609.0000;3744.2330
610.0000;3748.4750
611.0000;3754.3400
612.0000;3761.6230
613.0000;3769.3120
614.0000;3778.4980
615.0000;3786.7020
616.0000;3793.2340
617.0000;3798.1660
618.0000;3801.3000
619.0000;3807.7810
620.0000;3821.6430
621.0000;3837.1160
622.0000;3853.3610
623.0000;3867.8070
624.0000;3876.7130
625.0000;3879.7550
626.0000;3874.9110
627.0000;3873.0530
628.0000;3890.7730
629.0000;3920.9930
630.0000;3944.7430
631.0000;3950.6050
632.0000;3939.1020
633.0000;3924.0180
634.0000;3914.7640
635.0000;3906.5160
636.0000;3899.9840
637.0000;3897.0670
638.0000;3893.2090
639.0000;3879.2870
640.0000;3856.6200
641.0000;3837.2450
642.0000;3828.2260
643.0000;3832.0630
644.0000;3838.5880
645.0000;3835.0150
646.0000;3829.5330
647.0000;3827.4940
648.0000;3834.1460
649.0000;3841.9830
650.0000;3841.9050
651.0000;3829.7560
652.0000;3814.7600
653.0000;3806.0040
654.0000;3806.0150
655.0000;3810.8440
656.0000;3816.4440
657.0000;3823.3130
658.0000;3828.9000
659.0000;3832.4390
660.0000;3831.7330
661.0000;3827.4030
662.0000;3818.8730
663.0000;3808.7610
664.0000;3800.3210
665.0000;3795.5840
666.0000;3796.6250
667.0000;3804.4010
668.0000;3818.1690
669.0000;3830.9910
670.0000;3836.2200
671.0000;3832.5160
672.0000;3823.8310
673.0000;3813.2000
674.0000;3801.2800
675.0000;3791.7070
676.0000;3787.1330
677.0000;3786.6540
678.0000;3786.2970
679.0000;3786.1710
680.0000;3784.6410
681.0000;3776.6420
682.0000;3764.5960
683.0000;3755.8660
684.0000;3756.7960
685.0000;3765.1540
686.0000;3772.0530
687.0000;3770.0930
688.0000;3765.6850
689.0000;3765.5020
690.0000;3772.4180
691.0000;3780.0670
692.0000;3782.1810
693.0000;3777.8800
694.0000;3773.1560
695.0000;3773.8960
696.0000;3778.9440
697.0000;3785.4800
698.0000;3791.6410
699.0000;3797.0310
700.0000;3801.8580
701.0000;3806.0700
702.0000;3808.0680
703.0000;3807.9330
704.0000;3805.2330
705.0000;3804.4730
706.0000;3812.2620
707.0000;3826.2260
708.0000;3838.1540
709.0000;3842.2810
710.0000;3838.7710
711.0000;3832.9420
712.0000;3827.0040
713.0000;3822.9070
714.0000;3825.5670
715.0000;3837.0460
716.0000;3850.5250
717.0000;3858.8350
718.0000;3860.2710
719.0000;3858.8700
720.0000;3859.4750
721.0000;3860.0740
722.0000;3861.5690
723.0000;3864.6650
724.0000;3868.7290
725.0000;3873.8150
726.0000;3879.7300
727.0000;3884.6380
728.0000;3887.5450
729.0000;3887.5380
730.0000;3886.4240
731.0000;3888.0430
732.0000;3890.2040
733.0000;3889.9820
734.0000;3883.0470
735.0000;3875.3910
736.0000;3874.8280
737.0000;3887.1210
738.0000;3901.7870
739.0000;3907.6160
740.0000;3901.7830
741.0000;3893.2900
742.0000;3893.3850
743.0000;3898.9570
744.0000;3903.7000
745.0000;3901.8430
746.0000;3896.9450
747.0000;3893.2840
748.0000;3893.2680
749.0000;3895.2650
750.0000;3897.6150
751.0000;3900.0130
752.0000;3901.8610
753.0000;3901.8420
754.0000;3900.2810
755.0000;3899.5000
756.0000;3901.8840
757.0000;3905.8980
758.0000;3909.9140
759.0000;3912.6250
760.0000;3914.2650
761.0000;3915.7020
762.0000;3916.5480
763.0000;3917.2750
764.0000;3918.9470
765.0000;3921.2370
766.0000;3924.5000
767.0000;3928.7210
768.0000;3933.5910
769.0000;3940.0090
770.0000;3948.1190
771.0000;3955.2760
772.0000;3959.6690
773.0000;3960.0400
774.0000;3959.7950
775.0000;3965.7370
776.0000;3974.7360
777.0000;3979.9000
778.0000;3974.9190
779.0000;3965.3520
780.0000;3961.1250
781.0000;3968.9670
782.0000;3980.0220
783.0000;3985.2400
784.0000;3982.0900
785.0000;3977.0780
786.0000;3977.5860
787.0000;3981.6000
788.0000;3984.9400
789.0000;3984.4750
790.0000;3982.1010
791.0000;3980.0420
792.0000;3979.0900
793.0000;3980.6980
794.0000;3986.7000
795.0000;3997.2540
796.0000;4007.4840
797.0000;4014.5850
798.0000;4016.9740
799.0000;4017.6760
800.0000;4018.6650
801.0000;4019.7170
802.0000;4024.9490
803.0000;4035.6680
804.0000;4046.3670
805.0000;4052.0600
806.0000;4050.9160
807.0000;4046.8980
808.0000;4044.6200
809.0000;4043.0700
810.0000;4043.8710
811.0000;4048.9440
812.0000;4054.7980
813.0000;4056.1140
814.0000;4050.7720
815.0000;4044.8760
816.0000;4045.5780
817.0000;4052.1540
818.0000;4058.5830
819.0000;4058.7240
820.0000;4056.0280
821.0000;4056.0300
822.0000;4062.0500
823.0000;4069.4250
824.0000;4073.5950
825.0000;4073.0280
826.0000;4070.7660
827.0000;4069.9280
828.0000;4070.4050
829.0000;4073.2180
830.0000;4078.9490
831.0000;4087.0560
832.0000;4096.9390
833.0000;4108.7290
834.0000;4117.3590
835.0000;4120.2430
836.0000;4115.7710
837.0000;4109.2320
838.0000;4107.3840
839.0000;4108.4340
840.0000;4110.5940
841.0000;4112.9610
842.0000;4115.8440
843.0000;4119.3620
844.0000;4122.9470
845.0000;4124.2290
846.0000;4120.1430
847.0000;4112.0470
848.0000;4106.7860
849.0000;4111.2340
850.0000;4120.2280
851.0000;4125.0440
852.0000;4121.0800
853.0000;4113.3120
854.0000;4106.3750
855.0000;4101.7850
856.0000;4100.6870
857.0000;4105.0250
858.0000;4113.4510
859.0000;4119.4390
860.0000;4117.2510
861.0000;4113.0250
862.0000;4115.4480
863.0000;4126.0860
864.0000;4136.7230
865.0000;4139.0810
866.0000;4133.3110
867.0000;4126.8110
868.0000;4125.6460
869.0000;4127.7580
870.0000;4131.5960
871.0000;4136.4480
872.0000;4142.5770
873.0000;4149.8730
874.0000;4157.1390
875.0000;4163.8770
876.0000;4171.5990
877.0000;4177.4290
878.0000;4181.2120
879.0000;4182.7950
880.0000;4182.0670
881.0000;4182.8980
882.0000;4185.5580
883.0000;4187.3100
884.0000;4184.4150
885.0000;4179.7300
886.0000;4180.9260
887.0000;4195.2750
888.0000;4214.6750
889.0000;4228.6440
890.0000;4231.4320
891.0000;4230.7850
892.0000;4238.2590
893.0000;4250.7050
894.0000;4262.9000
895.0000;4272.8200
896.0000;4278.8310
897.0000;4284.7710
898.0000;4291.5320
899.0000;4296.7600
900.0000;4301.9150
901.0000;4305.9530
902.0000;4310.9680
903.0000;4321.3090
904.0000;4333.3080
905.0000;4343.7160
906.0000;4350.9210
907.0000;4354.8540
908.0000;4360.0210
909.0000;4365.6240
910.0000;4370.4950
911.0000;4376.9220
912.0000;4382.2640
913.0000;4385.5000
914.0000;4387.6500
915.0000;4385.8820
916.0000;4379.6130
917.0000;4368.5610
918.0000;4359.5950
919.0000;4360.1200
920.0000;4369.8700
921.0000;4381.5250
922.0000;4389.3950
923.0000;4394.3740
924.0000;4397.6210
925.0000;4398.7430
926.0000;4398.3030
927.0000;4399.9870
928.0000;4402.7960
929.0000;4404.5000
930.0000;4402.7110
931.0000;4400.2190
932.0000;4401.5640
933.0000;4408.7190
934.0000;4418.8940
935.0000;4430.4300
936.0000;4440.5980
937.0000;4447.9110
938.0000;4452.1970
939.0000;4452.1410
940.0000;4453.3960
941.0000;4458.8400
942.0000;4464.3060
943.0000;4467.8520
944.0000;4468.4370
945.0000;4466.9570
946.0000;4464.8970
947.0000;4462.2120
948.0000;4460.6260
949.0000;4461.0700
950.0000;4463.7860
951.0000;4468.6480
952.0000;4475.0560
953.0000;4481.5970
954.0000;4487.7930
955.0000;4491.7570
956.0000;4494.8820
957.0000;4497.9930
958.0000;4498.7190
959.0000;4497.1460
960.0000;4493.0230
961.0000;4488.3020
962.0000;4484.8940
963.0000;4483.7510
964.0000;4485.0370
965.0000;4488.3090
966.0000;4494.5210
967.0000;4502.9050
968.0000;4512.8920
969.0000;4521.8410
970.0000;4529.6450
971.0000;4533.9140
972.0000;4537.6970
973.0000;4542.5070
974.0000;4546.5400
975.0000;4551.5160
976.0000;4556.5630
977.0000;4562.1880
978.0000;4570.3650
979.0000;4578.8650
980.0000;4586.4810
981.0000;4592.5090
982.0000;4596.1130
983.0000;4599.5910
984.0000;4602.4710
985.0000;4605.6020
986.0000;4613.4980
987.0000;4621.7930
988.0000;4626.5700
989.0000;4624.8210
990.0000;4618.5750
991.0000;4612.3640
992.0000;4607.8540
993.0000;4608.1920
994.0000;4617.6120
995.0000;4633.2490
996.0000;4645.4630
997.0000;4648.2180
998.0000;4644.5260
999.0000;4640.7160
1000.0000;4637.0200
1001.0000;4634.5790
1002.0000;4636.0170
1003.0000;4640.0850
1004.0000;4642.8220
1005.0000;4642.1090
1006.0000;4638.9960
1007.0000;4634.2550
1008.0000;4628.8330
1009.0000;4625.4790
1010.0000;4625.8490
1011.0000;4630.7100
1012.0000;4638.3250
1013.0000;4647.4030
1014.0000;4656.5600
1015.0000;4665.8720
1016.0000;4672.8610
1017.0000;4677.3080
1018.0000;4680.8030
1019.0000;4681.8610
1020.0000;4684.7400
1021.0000;4691.4130
1022.0000;4696.3180
1023.0000;4693.9900
1024.0000;4685.8000
1025.0000;4684.0280
1026.0000;4701.4130
1027.0000;4726.3210
1028.0000;4741.8920
1029.0000;4739.6760
1030.0000;4729.6420
1031.0000;4725.0450
1032.0000;4724.1910
1033.0000;4725.6510
1034.0000;4729.2700
1035.0000;4734.1560
1036.0000;4736.8150
1037.0000;4735.9630
1038.0000;4737.2890
1039.0000;4748.4830
1040.0000;4765.0760
1041.0000;4777.8870
1042.0000;4780.7830
1043.0000;4776.9710
1044.0000;4774.8210
1045.0000;4775.2920
1046.0000;4775.7710
1047.0000;4774.2200
1048.0000;4772.9700
1049.0000;4775.7870
1050.0000;4784.8460
1051.0000;4796.5250
1052.0000;4806.5140
1053.0000;4813.5540
1054.0000;4820.1960
1055.0000;4831.2660
1056.0000;4841.9340
1057.0000;4852.1490
1058.0000;4860.8130
