Raman Shift ; Dark Subtracted #1
-2.0000;3677.5760
-1.0000;3372.4310
0.0000;2965.9630
1.0000;2478.6700
2.0000;1934.9830
3.0000;1406.0860
4.0000;974.8376
5.0000;607.8652
6.0000;353.5633
7.0000;261.0154
8.0000;198.9333
9.0000;169.2450
10.0000;196.5643
11.0000;192.5597
12.0000;122.6604
13.0000;49.2126
14.0000;-2.5344
15.0000;-14.8665
16.0000;0.4774
17.0000;14.0779
18.0000;12.3021
19.0000;9.3325
20.0000;6.1361
21.0000;2.8365
22.0000;0.8005
23.0000;1.0575
24.0000;4.7760
25.0000;10.0661
26.0000;14.3524
27.0000;15.2208
28.0000;13.8185
29.0000;12.1897
30.0000;12.4259
31.0000;12.7192
32.0000;12.1874
33.0000;9.4093
34.0000;6.1604
35.0000;4.2811
36.0000;5.4831
37.0000;8.6429
38.0000;11.8274
39.0000;12.9878
40.0000;12.7608
41.0000;12.0400
42.0000;12.0337
43.0000;11.9149
44.0000;11.4636
45.0000;11.0747
46.0000;10.1467
47.0000;7.9789
48.0000;2.4728
49.0000;-4.0094
50.0000;-8.0922
51.0000;-6.5553
52.0000;-0.1226
53.0000;6.6820
54.0000;9.3336
55.0000;8.5100
56.0000;6.4805
57.0000;5.2577
58.0000;4.5342
59.0000;5.0071
60.0000;7.8019
61.0000;12.4567
62.0000;17.0867
63.0000;19.3822
64.0000;19.4481
65.0000;20.3340
66.0000;25.1079
67.0000;32.9202
68.0000;42.2587
69.0000;52.0060
70.0000;61.0666
71.0000;70.6954
72.0000;84.6195
73.0000;99.7374
74.0000;112.6447
75.0000;122.3603
76.0000;125.8384
77.0000;128.2125
78.0000;137.2396
79.0000;150.8733
80.0000;165.2944
81.0000;178.7555
82.0000;189.0019
83.0000;199.2039
84.0000;214.3732
85.0000;232.2443
86.0000;250.7677
87.0000;272.1335
88.0000;292.6816
89.0000;311.1155
90.0000;329.3868
91.0000;344.0520
92.0000;356.4044
93.0000;373.3753
94.0000;392.2069
95.0000;410.8692
96.0000;431.5272
97.0000;451.1868
98.0000;468.1602
99.0000;486.4103
100.0000;503.0503
101.0000;516.4202
102.0000;533.1553
103.0000;550.6101
104.0000;565.3052
105.0000;578.2708
106.0000;586.9885
107.0000;592.7105
108.0000;602.1270
109.0000;613.6630
110.0000;624.6649
111.0000;636.2170
112.0000;646.7524
113.0000;655.2775
114.0000;665.1974
115.0000;675.0914
116.0000;684.1478
117.0000;694.5673
118.0000;705.2321
119.0000;714.7226
120.0000;724.8214
121.0000;734.2593
122.0000;740.7496
123.0000;745.0682
124.0000;745.9608
125.0000;744.3230
126.0000;744.0745
127.0000;745.4213
128.0000;747.2049
129.0000;749.5756
130.0000;752.3815
131.0000;754.3745
132.0000;754.0753
133.0000;750.9403
134.0000;747.9763
135.0000;749.5665
136.0000;756.5720
137.0000;763.8842
138.0000;765.3702
139.0000;759.2606
140.0000;751.8897
141.0000;749.6531
142.0000;754.4211
143.0000;761.1093
144.0000;765.0871
145.0000;764.9337
146.0000;763.5311
147.0000;763.6207
148.0000;765.4442
149.0000;768.0064
150.0000;771.0948
151.0000;774.5006
152.0000;776.7142
153.0000;777.1376
154.0000;775.0447
155.0000;771.5992
156.0000;768.3967
157.0000;766.0368
158.0000;763.7665
159.0000;760.6785
160.0000;757.1146
161.0000;754.5707
162.0000;752.8080
163.0000;752.7155
164.0000;754.9302
165.0000;759.6552
166.0000;766.9714
167.0000;773.5179
168.0000;777.1632
169.0000;776.4157
170.0000;772.9437
171.0000;769.4924
172.0000;765.8262
173.0000;762.5330
174.0000;759.7617
175.0000;758.4431
176.0000;758.5807
177.0000;759.4337
178.0000;761.3354
179.0000;763.8923
180.0000;766.4704
181.0000;768.7410
182.0000;769.9798
183.0000;769.7480
184.0000;767.8080
185.0000;765.9106
186.0000;766.2899
187.0000;768.4440
188.0000;770.2550
189.0000;769.2947
190.0000;766.1180
191.0000;762.6317
192.0000;760.7386
193.0000;760.5767
194.0000;761.3129
195.0000;762.5718
196.0000;764.0892
197.0000;764.0914
198.0000;760.4219
199.0000;754.0411
200.0000;748.2192
201.0000;745.2567
202.0000;745.5585
203.0000;747.7864
204.0000;750.4184
205.0000;753.7933
206.0000;756.1941
207.0000;755.9310
208.0000;753.5373
209.0000;751.1890
210.0000;750.7000
211.0000;751.6703
212.0000;753.7276
213.0000;756.5415
214.0000;759.7844
215.0000;762.9000
216.0000;765.6868
217.0000;767.3040
218.0000;768.1414
219.0000;768.8434
220.0000;768.7274
221.0000;768.6646
222.0000;769.5829
223.0000;770.5547
224.0000;770.9769
225.0000;770.0787
226.0000;768.8741
227.0000;768.6125
228.0000;770.4809
229.0000;773.2665
230.0000;775.4796
231.0000;775.8265
232.0000;775.7005
233.0000;777.0710
234.0000;781.5543
235.0000;786.0776
236.0000;788.0800
237.0000;785.9224
238.0000;781.6328
239.0000;778.4547
240.0000;777.9135
241.0000;778.7148
242.0000;779.5873
243.0000;780.2773
244.0000;780.9471
245.0000;781.1564
246.0000;780.6513
247.0000;780.3078
248.0000;781.3594
249.0000;784.0610
250.0000;786.4687
251.0000;786.9388
252.0000;784.7755
253.0000;781.8777
254.0000;780.1251
255.0000;779.9908
256.0000;781.2779
257.0000;784.4124
258.0000;788.9904
259.0000;792.0904
260.0000;790.4793
261.0000;784.4749
262.0000;777.9496
263.0000;775.2347
264.0000;776.6262
265.0000;779.8322
266.0000;782.2838
267.0000;784.4974
268.0000;786.5638
269.0000;788.8596
270.0000;790.5297
271.0000;791.3605
272.0000;791.2329
273.0000;790.1718
274.0000;789.5882
275.0000;790.8271
276.0000;793.2927
277.0000;796.2000
278.0000;799.4664
279.0000;802.1697
280.0000;803.8115
281.0000;804.5163
282.0000;803.4774
283.0000;801.3133
284.0000;797.1780
285.0000;793.8384
286.0000;794.7122
287.0000;802.9418
288.0000;814.1586
289.0000;822.8079
290.0000;825.4662
291.0000;823.6221
292.0000;821.2114
293.0000;819.6086
294.0000;817.0655
295.0000;813.2809
296.0000;808.1880
297.0000;804.2013
298.0000;803.0913
299.0000;806.0035
300.0000;810.9571
301.0000;815.3776
302.0000;818.2038
303.0000;819.3165
304.0000;818.0761
305.0000;814.2567
306.0000;811.0945
307.0000;812.4432
308.0000;818.4839
309.0000;825.2205
310.0000;829.7752
311.0000;831.5707
312.0000;831.6103
313.0000;831.2509
314.0000;829.7701
315.0000;828.5556
316.0000;829.3707
317.0000;831.3357
318.0000;833.0370
319.0000;832.5122
320.0000;831.2215
321.0000;831.2614
322.0000;834.9978
323.0000;840.2621
324.0000;844.7234
325.0000;846.4810
326.0000;845.9490
327.0000;844.7635
328.0000;844.1748
329.0000;842.9156
330.0000;840.6951
331.0000;837.1261
332.0000;833.7530
333.0000;831.9335
334.0000;832.2510
335.0000;834.7889
336.0000;839.1146
337.0000;844.8442
338.0000;850.0691
339.0000;852.6702
340.0000;851.4131
341.0000;848.9890
342.0000;848.9287
343.0000;851.3572
344.0000;854.5676
345.0000;857.7996
346.0000;860.6420
347.0000;862.5871
348.0000;863.9081
349.0000;863.9150
350.0000;863.2894
351.0000;862.6854
352.0000;862.1522
353.0000;862.6221
354.0000;865.1646
355.0000;869.0264
356.0000;872.5114
357.0000;875.5244
358.0000;876.6240
359.0000;875.7249
360.0000;872.3257
361.0000;867.4846
362.0000;863.0213
363.0000;859.7730
364.0000;859.4372
365.0000;863.4417
366.0000;872.9240
367.0000;883.6804
368.0000;889.5012
369.0000;887.8906
370.0000;882.9259
371.0000;881.0931
372.0000;883.1866
373.0000;885.7875
374.0000;886.4775
375.0000;885.0610
376.0000;883.1885
377.0000;882.2419
378.0000;882.3653
379.0000;883.6031
380.0000;886.1346
381.0000;889.5862
382.0000;893.0400
383.0000;896.4127
384.0000;898.4341
385.0000;899.0000
386.0000;897.8751
387.0000;895.4260
388.0000;893.7052
389.0000;894.0803
390.0000;896.2874
391.0000;899.8065
392.0000;905.0958
393.0000;909.9091
394.0000;912.5367
395.0000;911.4255
396.0000;908.0935
397.0000;905.5867
398.0000;904.6489
399.0000;904.7571
400.0000;905.5875
401.0000;907.3097
402.0000;909.2040
403.0000;910.1646
404.0000;910.1140
405.0000;910.6016
406.0000;913.4728
407.0000;917.8655
408.0000;922.4301
409.0000;926.2000
410.0000;928.3411
411.0000;929.5722
412.0000;932.2617
413.0000;933.3909
414.0000;931.1855
415.0000;922.1243
416.0000;912.1027
417.0000;909.7678
418.0000;921.5554
419.0000;939.4117
420.0000;951.5914
421.0000;952.0043
422.0000;945.8769
423.0000;939.9227
424.0000;935.7124
425.0000;933.5487
426.0000;935.8765
427.0000;943.3877
428.0000;951.8375
429.0000;957.8909
430.0000;960.1110
431.0000;959.8486
432.0000;958.6225
433.0000;956.0236
434.0000;954.5773
435.0000;958.2892
436.0000;964.2725
437.0000;967.4864
438.0000;962.9446
439.0000;954.6707
440.0000;947.8511
441.0000;946.6174
442.0000;949.2804
443.0000;952.8734
444.0000;956.3885
445.0000;959.9163
446.0000;962.5439
447.0000;963.4897
448.0000;963.6055
449.0000;964.5150
450.0000;966.1967
451.0000;968.4533
452.0000;971.7053
453.0000;975.4909
454.0000;979.2382
455.0000;983.4399
456.0000;986.9370
457.0000;989.7772
458.0000;992.2147
459.0000;993.9058
460.0000;996.6537
461.0000;1003.0890
462.0000;1010.3240
463.0000;1016.6670
464.0000;1020.7240
465.0000;1022.7970
466.0000;1025.8080
467.0000;1030.6450
468.0000;1035.2430
469.0000;1039.5590
470.0000;1043.0930
471.0000;1045.5560
472.0000;1048.1980
473.0000;1050.3810
474.0000;1052.5320
475.0000;1056.0200
476.0000;1060.1170
477.0000;1064.6970
478.0000;1070.9110
479.0000;1076.8160
480.0000;1081.4000
481.0000;1086.1420
482.0000;1087.6290
483.0000;1085.7200
484.0000;1080.1530
485.0000;1071.8900
486.0000;1064.0700
487.0000;1058.5460
488.0000;1055.3000
489.0000;1052.6980
490.0000;1051.1970
491.0000;1051.0220
492.0000;1050.3720
493.0000;1049.5430
494.0000;1048.8240
495.0000;1047.2130
496.0000;1045.5540
497.0000;1045.4180
498.0000;1048.7190
499.0000;1054.0880
500.0000;1058.1000
501.0000;1057.2200
502.0000;1053.6590
503.0000;1051.6180
504.0000;1054.7170
505.0000;1059.3190
506.0000;1061.9040
507.0000;1060.5140
508.0000;1056.8930
509.0000;1053.2490
510.0000;1050.1220
511.0000;1048.7040
512.0000;1049.4460
513.0000;1053.1440
514.0000;1059.6620
515.0000;1069.5720
516.0000;1080.8450
517.0000;1089.6240
518.0000;1092.7200
519.0000;1089.9260
520.0000;1086.4910
521.0000;1087.3580
522.0000;1089.3880
523.0000;1091.4090
524.0000;1092.5420
525.0000;1093.4700
526.0000;1094.8680
527.0000;1096.6530
528.0000;1099.5780
529.0000;1105.5010
530.0000;1113.6550
531.0000;1121.1120
532.0000;1125.6830
533.0000;1126.3120
534.0000;1126.1630
535.0000;1129.8960
536.0000;1134.8780
537.0000;1139.2000
538.0000;1140.8950
539.0000;1141.2600
540.0000;1144.1310
541.0000;1152.9460
542.0000;1162.5650
543.0000;1168.2680
544.0000;1167.7790
545.0000;1163.3240
546.0000;1158.8500
547.0000;1155.3300
548.0000;1153.5300
549.0000;1155.2390
550.0000;1160.4510
551.0000;1165.8960
552.0000;1168.3910
553.0000;1168.1060
554.0000;1167.0000
555.0000;1167.6420
556.0000;1167.9930
557.0000;1167.2200
558.0000;1164.5840
559.0000;1161.2350
560.0000;1158.7470
561.0000;1157.8040
562.0000;1158.1770
563.0000;1158.8770
564.0000;1159.9610
565.0000;1161.3850
566.0000;1162.8820
567.0000;1164.1200
568.0000;1164.4510
569.0000;1163.2650
570.0000;1160.9300
571.0000;1159.2740
572.0000;1159.4960
573.0000;1161.2040
574.0000;1163.5800
575.0000;1166.7740
576.0000;1168.8840
577.0000;1167.9390
578.0000;1162.8630
579.0000;1156.9130
580.0000;1154.8650
581.0000;1157.2220
582.0000;1159.6410
583.0000;1156.7230
584.0000;1149.8780
585.0000;1143.7730
586.0000;1141.3940
587.0000;1142.5160
588.0000;1144.4520
589.0000;1144.8840
590.0000;1145.3700
591.0000;1146.0750
592.0000;1147.1420
593.0000;1148.0590
594.0000;1148.8880
595.0000;1149.3870
596.0000;1148.7590
597.0000;1146.1030
598.0000;1141.7010
599.0000;1138.2400
600.0000;1137.7460
601.0000;1140.0590
602.0000;1142.8500
603.0000;1144.0580
604.0000;1144.2140
605.0000;1143.3390
606.0000;1140.9210
607.0000;1138.8340
608.0000;1139.7280
609.0000;1144.7690
610.0000;1151.0340
611.0000;1155.6890
612.0000;1157.9020
613.0000;1157.9900
614.0000;1156.2070
615.0000;1152.9630
616.0000;1151.8660
617.0000;1156.3680
618.0000;1164.3890
619.0000;1172.0570
620.0000;1177.0990
621.0000;1180.4690
622.0000;1185.3320
623.0000;1192.0360
624.0000;1198.0610
625.0000;1204.0110
626.0000;1208.3180
627.0000;1210.8800
628.0000;1213.7840
629.0000;1215.3660
630.0000;1215.9750
631.0000;1218.0320
632.0000;1218.7740
633.0000;1216.7070
634.0000;1210.9150
635.0000;1202.8840
636.0000;1195.6010
637.0000;1191.0780
638.0000;1187.4870
639.0000;1181.3860
640.0000;1173.7860
641.0000;1167.4900
642.0000;1162.8750
643.0000;1161.3210
644.0000;1160.1570
645.0000;1155.3760
646.0000;1150.2180
647.0000;1146.2730
648.0000;1144.5380
649.0000;1144.8880
650.0000;1144.8270
651.0000;1143.6130
652.0000;1143.4650
653.0000;1146.3600
654.0000;1151.9740
655.0000;1155.8480
656.0000;1153.9240
657.0000;1146.8930
658.0000;1139.8000
659.0000;1136.1390
660.0000;1135.9550
661.0000;1138.1290
662.0000;1142.8200
663.0000;1148.1870
664.0000;1150.9000
665.0000;1149.4260
666.0000;1145.1970
667.0000;1140.0460
668.0000;1134.6640
669.0000;1130.2920
670.0000;1128.9670
671.0000;1130.3320
672.0000;1130.4140
673.0000;1124.9720
674.0000;1117.9320
675.0000;1112.6820
676.0000;1111.5090
677.0000;1112.3850
678.0000;1111.3260
679.0000;1108.1340
680.0000;1105.6700
681.0000;1105.7300
682.0000;1108.3660
683.0000;1110.8830
684.0000;1110.7940
685.0000;1108.7940
686.0000;1106.1530
687.0000;1103.6640
688.0000;1101.4000
689.0000;1099.4050
690.0000;1097.9850
691.0000;1097.3960
692.0000;1096.7160
693.0000;1096.3680
694.0000;1097.1760
695.0000;1100.1900
696.0000;1104.2970
697.0000;1106.7190
698.0000;1104.8960
699.0000;1100.5800
700.0000;1097.3700
701.0000;1097.4280
702.0000;1098.8990
703.0000;1099.5870
704.0000;1099.1090
705.0000;1098.6330
706.0000;1098.9820
707.0000;1099.9830
708.0000;1100.9590
709.0000;1101.3950
710.0000;1101.3550
711.0000;1101.2070
712.0000;1101.2070
713.0000;1101.1510
714.0000;1100.8490
715.0000;1100.2230
716.0000;1100.3670
717.0000;1102.6100
718.0000;1106.6450
719.0000;1110.2540
720.0000;1112.1270
721.0000;1111.5960
722.0000;1109.2760
723.0000;1105.2210
724.0000;1101.0630
725.0000;1099.5830
726.0000;1102.4510
727.0000;1107.1390
728.0000;1109.9960
729.0000;1110.4700
730.0000;1109.4160
731.0000;1107.8420
732.0000;1105.4160
733.0000;1102.7300
734.0000;1099.9910
735.0000;1098.2730
736.0000;1097.9630
737.0000;1099.4540
738.0000;1102.4710
739.0000;1106.1710
740.0000;1110.0410
741.0000;1112.9370
742.0000;1113.6090
743.0000;1112.0600
744.0000;1110.8000
745.0000;1112.7720
746.0000;1115.8430
747.0000;1118.2720
748.0000;1119.0000
749.0000;1118.5550
750.0000;1118.2340
751.0000;1118.0600
752.0000;1117.3050
753.0000;1115.5380
754.0000;1113.1290
755.0000;1111.0000
756.0000;1109.4340
757.0000;1109.2030
758.0000;1110.1960
759.0000;1112.3860
760.0000;1115.3310
761.0000;1117.9160
762.0000;1119.4410
763.0000;1120.8780
764.0000;1123.4610
765.0000;1126.5250
766.0000;1130.2000
767.0000;1135.8040
768.0000;1140.6190
769.0000;1143.2540
770.0000;1142.6200
771.0000;1138.7890
772.0000;1132.9810
773.0000;1125.7920
774.0000;1122.3960
775.0000;1129.3730
776.0000;1144.8600
777.0000;1157.2000
778.0000;1156.5040
779.0000;1148.3970
780.0000;1143.4820
781.0000;1147.8150
782.0000;1155.3880
783.0000;1162.2040
784.0000;1166.4320
785.0000;1168.2470
786.0000;1168.1210
787.0000;1165.1970
788.0000;1161.8350
789.0000;1160.1720
790.0000;1159.4530
791.0000;1158.3820
792.0000;1156.1420
793.0000;1155.8190
794.0000;1160.7870
795.0000;1171.1410
796.0000;1179.1650
797.0000;1177.5970
798.0000;1168.3300
799.0000;1161.0890
800.0000;1163.1380
801.0000;1169.7020
802.0000;1175.3320
803.0000;1177.2450
804.0000;1178.0160
805.0000;1180.5700
806.0000;1183.8420
807.0000;1185.5000
808.0000;1183.2640
809.0000;1178.5280
810.0000;1175.8410
811.0000;1178.3170
812.0000;1183.5660
813.0000;1188.2110
814.0000;1191.2270
815.0000;1192.7760
816.0000;1192.5470
817.0000;1190.8930
818.0000;1191.8960
819.0000;1200.9310
820.0000;1213.0890
821.0000;1221.3170
822.0000;1221.3600
823.0000;1216.0320
824.0000;1210.9610
825.0000;1207.1810
826.0000;1204.7190
827.0000;1205.0530
828.0000;1207.8470
829.0000;1209.9120
830.0000;1208.3690
831.0000;1204.6600
832.0000;1200.0830
833.0000;1194.6530
834.0000;1191.8990
835.0000;1195.4480
836.0000;1204.9790
837.0000;1214.0700
838.0000;1215.6740
839.0000;1211.4190
840.0000;1207.0110
841.0000;1205.0520
842.0000;1205.7720
843.0000;1211.1460
844.0000;1221.2880
845.0000;1230.2270
846.0000;1230.7030
847.0000;1223.1230
848.0000;1215.8200
849.0000;1216.2770
850.0000;1220.7530
851.0000;1224.9590
852.0000;1226.7860
853.0000;1227.5360
854.0000;1228.1370
855.0000;1228.3060
856.0000;1228.5200
857.0000;1229.1430
858.0000;1230.5230
859.0000;1233.6500
860.0000;1239.4610
861.0000;1245.7970
862.0000;1250.9910
863.0000;1253.6530
864.0000;1254.6900
865.0000;1256.1340
866.0000;1257.1160
867.0000;1258.3590
868.0000;1260.7750
869.0000;1263.8060
870.0000;1268.2740
871.0000;1274.5950
872.0000;1278.9160
873.0000;1278.1120
874.0000;1271.6880
875.0000;1265.1520
876.0000;1263.8630
877.0000;1266.4270
878.0000;1269.7910
879.0000;1272.2510
880.0000;1273.9120
881.0000;1274.0660
882.0000;1272.2510
883.0000;1269.9680
884.0000;1267.8060
885.0000;1267.2200
886.0000;1270.6220
887.0000;1280.5500
888.0000;1293.0280
889.0000;1302.8950
890.0000;1307.0130
891.0000;1307.6110
892.0000;1309.6200
893.0000;1311.4840
894.0000;1313.2000
895.0000;1316.5390
896.0000;1319.3420
897.0000;1320.5570
898.0000;1318.9950
899.0000;1317.6820
900.0000;1321.2970
901.0000;1329.5060
902.0000;1336.9510
903.0000;1339.1090
904.0000;1336.8050
905.0000;1335.1550
906.0000;1337.0850
907.0000;1339.9270
908.0000;1342.0700
909.0000;1343.0150
910.0000;1344.1490
911.0000;1347.6410
912.0000;1351.9730
913.0000;1354.7190
914.0000;1354.1580
915.0000;1352.1680
916.0000;1352.3700
917.0000;1355.7270
918.0000;1360.4020
919.0000;1364.7890
920.0000;1368.4080
921.0000;1371.5570
922.0000;1375.6590
923.0000;1378.0620
924.0000;1377.9530
925.0000;1374.6190
926.0000;1370.6910
927.0000;1369.6980
928.0000;1371.9600
929.0000;1375.4000
930.0000;1378.3800
931.0000;1381.1580
932.0000;1383.7800
933.0000;1385.7160
934.0000;1387.2860
935.0000;1390.4520
936.0000;1394.0960
937.0000;1396.1640
938.0000;1395.4680
939.0000;1392.1950
940.0000;1389.2470
941.0000;1388.0760
942.0000;1387.5460
943.0000;1386.0740
944.0000;1384.1540
945.0000;1383.5480
946.0000;1385.3800
947.0000;1389.1770
948.0000;1393.2940
949.0000;1396.6500
950.0000;1398.4420
951.0000;1398.6650
952.0000;1396.6650
953.0000;1393.0450
954.0000;1388.1510
955.0000;1383.4750
956.0000;1380.6580
957.0000;1381.1780
958.0000;1383.9430
959.0000;1386.4380
960.0000;1387.9500
961.0000;1387.9620
962.0000;1384.6110
963.0000;1379.9170
964.0000;1378.4570
965.0000;1383.6670
966.0000;1392.0020
967.0000;1398.2200
968.0000;1400.9130
969.0000;1401.5560
970.0000;1402.4880
971.0000;1402.5340
972.0000;1402.7970
973.0000;1403.5660
974.0000;1405.6830
975.0000;1411.4280
976.0000;1420.2500
977.0000;1427.6050
978.0000;1427.9790
979.0000;1423.3880
980.0000;1423.1140
981.0000;1434.5430
982.0000;1447.3950
983.0000;1450.2750
984.0000;1440.3720
985.0000;1428.9510
986.0000;1427.4660
987.0000;1432.6410
988.0000;1436.6120
989.0000;1433.3700
990.0000;1429.3180
991.0000;1431.3120
992.0000;1439.8500
993.0000;1447.6440
994.0000;1447.4320
995.0000;1441.0250
996.0000;1435.1300
997.0000;1434.1700
998.0000;1434.6750
999.0000;1433.9390
1000.0000;1431.6210
1001.0000;1426.8880
1002.0000;1416.8100
1003.0000;1405.3770
1004.0000;1399.0350
1005.0000;1402.2730
1006.0000;1409.5020
1007.0000;1410.3630
1008.0000;1404.5530
1009.0000;1398.5930
1010.0000;1396.9110
1011.0000;1399.7010
1012.0000;1406.6910
1013.0000;1418.6380
1014.0000;1428.5250
1015.0000;1429.1910
1016.0000;1419.0660
1017.0000;1408.4830
1018.0000;1408.0010
1019.0000;1412.7960
1020.0000;1415.6940
1021.0000;1413.3480
1022.0000;1409.9840
1023.0000;1408.6810
1024.0000;1409.5690
1025.0000;1410.6030
1026.0000;1410.2460
1027.0000;1409.1000
1028.0000;1407.0970
1029.0000;1404.1770
1030.0000;1402.7460
1031.0000;1405.1670
1032.0000;1410.9990
1033.0000;1416.1930
1034.0000;1417.5770
1035.0000;1416.4940
1036.0000;1415.7980
1037.0000;1416.0000
1038.0000;1416.8130
1039.0000;1419.1540
1040.0000;1422.0620
1041.0000;1423.5180
1042.0000;1421.7090
1043.0000;1419.0660
1044.0000;1418.9240
1045.0000;1422.1280
1046.0000;1426.2210
1047.0000;1428.1680
1048.0000;1429.4290
1049.0000;1433.5770
1050.0000;1443.1580
1051.0000;1452.1120
1052.0000;1455.4340
1053.0000;1451.7590
1054.0000;1446.5890
1055.0000;1446.3850
1056.0000;1448.3860
1057.0000;1449.9120
1058.0000;1449.6210
1059.0000;1449.7680
1060.0000;1452.4410
1061.0000;1457.1150
1062.0000;1461.8060
1063.0000;1466.7570
1064.0000;1468.6730
1065.0000;1464.8030
1066.0000;1453.8660
1067.0000;1444.6970
1068.0000;1446.8500
1069.0000;1458.5460
1070.0000;1469.9410
1071.0000;1474.6780
1072.0000;1474.7570
1073.0000;1473.3470
1074.0000;1470.1980
1075.0000;1466.5120
1076.0000;1463.8460
1077.0000;1463.1320
1078.0000;1465.0170
