Raman Shift ; Dark Subtracted #1
-2.0000;3752.5560
-1.0000;3502.5360
0.0000;3104.7120
1.0000;2598.7660
2.0000;2036.0040
3.0000;1488.5830
4.0000;1037.7480
5.0000;658.7455
6.0000;403.7111
7.0000;315.1626
8.0000;251.7081
9.0000;212.7156
10.0000;228.2792
11.0000;210.7776
12.0000;126.8390
13.0000;43.0138
14.0000;-13.8401
15.0000;-23.8239
16.0000;-0.6138
17.0000;19.6754
18.0000;20.2613
19.0000;17.9455
20.0000;15.5951
21.0000;14.9295
22.0000;14.5915
23.0000;14.2773
24.0000;13.6701
25.0000;13.3325
26.0000;13.4524
27.0000;14.3555
28.0000;15.5911
29.0000;16.4382
30.0000;16.2756
31.0000;15.5008
32.0000;14.7607
33.0000;14.2738
34.0000;14.3232
35.0000;15.2733
36.0000;18.6866
37.0000;22.1370
38.0000;23.2336
39.0000;18.4457
40.0000;10.4274
41.0000;3.8497
42.0000;3.2288
43.0000;6.9347
44.0000;10.9567
45.0000;10.6469
46.0000;8.3616
47.0000;6.4910
48.0000;7.4177
49.0000;10.1883
50.0000;13.2145
51.0000;14.3854
52.0000;14.6278
53.0000;15.9091
54.0000;21.2171
55.0000;28.5059
56.0000;34.5563
57.0000;35.4859
58.0000;32.2938
59.0000;30.7031
60.0000;36.1361
61.0000;47.6668
62.0000;62.6419
63.0000;78.3240
64.0000;93.2027
65.0000;110.8812
66.0000;135.1151
67.0000;162.3684
68.0000;193.2604
69.0000;231.8787
70.0000;271.8809
71.0000;313.1727
72.0000;363.4730
73.0000;412.6051
74.0000;457.7849
75.0000;506.4593
76.0000;545.6666
77.0000;584.0053
78.0000;641.7444
79.0000;707.2007
80.0000;770.0552
81.0000;831.5753
82.0000;879.6542
83.0000;926.2808
84.0000;995.9703
85.0000;1077.4530
86.0000;1158.0210
87.0000;1241.3100
88.0000;1312.0660
89.0000;1379.1290
90.0000;1468.3770
91.0000;1566.1440
92.0000;1657.2380
93.0000;1749.4880
94.0000;1825.1250
95.0000;1893.1610
96.0000;1985.2790
97.0000;2089.1350
98.0000;2186.7200
99.0000;2289.2660
100.0000;2381.0880
101.0000;2452.4330
102.0000;2533.1350
103.0000;2608.5320
104.0000;2672.0970
105.0000;2740.7170
106.0000;2804.2220
107.0000;2863.0900
108.0000;2946.4210
109.0000;3040.2730
110.0000;3129.2690
111.0000;3220.5320
112.0000;3300.9410
113.0000;3362.7950
114.0000;3433.7800
115.0000;3503.2020
116.0000;3563.6790
117.0000;3632.4620
118.0000;3701.8110
119.0000;3760.2440
120.0000;3816.7270
121.0000;3862.6490
122.0000;3895.4370
123.0000;3930.6350
124.0000;3963.3400
125.0000;3995.3660
126.0000;4045.5550
127.0000;4111.4280
128.0000;4172.8180
129.0000;4218.2640
130.0000;4237.7440
131.0000;4242.5090
132.0000;4260.1280
133.0000;4290.3750
134.0000;4322.4790
135.0000;4355.9190
136.0000;4386.6730
137.0000;4411.7640
138.0000;4434.8130
139.0000;4452.3420
140.0000;4464.2900
141.0000;4481.6480
142.0000;4503.2150
143.0000;4523.7690
144.0000;4549.4990
145.0000;4575.5100
146.0000;4595.9370
147.0000;4611.0580
148.0000;4615.4740
149.0000;4614.6820
150.0000;4620.3030
151.0000;4632.5630
152.0000;4646.8660
153.0000;4665.0820
154.0000;4685.5840
155.0000;4701.0450
156.0000;4710.1880
157.0000;4708.7710
158.0000;4700.9240
159.0000;4694.4370
160.0000;4689.5170
161.0000;4688.3190
162.0000;4693.9640
163.0000;4706.9060
164.0000;4723.3520
165.0000;4738.1310
166.0000;4749.6450
167.0000;4757.9590
168.0000;4767.8750
169.0000;4775.9630
170.0000;4779.8010
171.0000;4777.3180
172.0000;4768.0360
173.0000;4762.9500
174.0000;4775.7370
175.0000;4805.7970
176.0000;4835.8770
177.0000;4851.7800
178.0000;4850.2130
179.0000;4845.9600
180.0000;4856.7970
181.0000;4879.8070
182.0000;4904.6800
183.0000;4928.2480
184.0000;4945.5240
185.0000;4957.7600
186.0000;4972.5170
187.0000;4983.0500
188.0000;4989.0260
189.0000;4993.0300
190.0000;4992.4610
191.0000;4991.4810
192.0000;4996.8130
193.0000;5005.6430
194.0000;5015.0720
195.0000;5023.5300
196.0000;5029.2910
197.0000;5031.7110
198.0000;5031.0880
199.0000;5026.8130
200.0000;5023.3460
201.0000;5025.8260
202.0000;5032.4670
203.0000;5039.5110
204.0000;5042.9390
205.0000;5044.1170
206.0000;5046.0830
207.0000;5051.2140
208.0000;5058.7750
209.0000;5068.9160
210.0000;5085.6310
211.0000;5101.7510
212.0000;5112.4350
213.0000;5109.9250
214.0000;5099.4970
215.0000;5094.4000
216.0000;5110.3540
217.0000;5136.2380
218.0000;5159.3730
219.0000;5171.2500
220.0000;5174.1940
221.0000;5177.2870
222.0000;5187.7600
223.0000;5199.9740
224.0000;5214.0100
225.0000;5230.4530
226.0000;5245.6060
227.0000;5261.3720
228.0000;5277.5580
229.0000;5291.5000
230.0000;5308.1660
231.0000;5331.2780
232.0000;5351.1820
233.0000;5363.3250
234.0000;5363.7120
235.0000;5355.2800
236.0000;5349.3140
237.0000;5350.1920
238.0000;5355.2600
239.0000;5364.4990
240.0000;5377.9450
241.0000;5392.8620
242.0000;5406.4860
243.0000;5417.2470
244.0000;5424.6170
245.0000;5431.9770
246.0000;5438.4170
247.0000;5444.7660
248.0000;5456.6950
249.0000;5473.9060
250.0000;5489.4970
251.0000;5501.3280
252.0000;5505.5990
253.0000;5505.8300
254.0000;5510.0190
255.0000;5517.0880
256.0000;5522.8970
257.0000;5526.6280
258.0000;5526.7850
259.0000;5524.1620
260.0000;5518.3440
261.0000;5511.0850
262.0000;5509.0980
263.0000;5520.4130
264.0000;5543.8070
265.0000;5569.0870
266.0000;5588.6850
267.0000;5599.2110
268.0000;5603.2950
269.0000;5606.8200
270.0000;5605.0550
271.0000;5601.1890
272.0000;5596.8130
273.0000;5594.1640
274.0000;5598.9640
275.0000;5617.7840
276.0000;5645.2040
277.0000;5671.4000
278.0000;5688.3430
279.0000;5696.9760
280.0000;5706.5900
281.0000;5728.1060
282.0000;5749.5200
283.0000;5767.8400
284.0000;5782.4900
285.0000;5788.8270
286.0000;5790.9490
287.0000;5789.4320
288.0000;5786.3080
289.0000;5791.4040
290.0000;5812.8920
291.0000;5836.3480
292.0000;5850.2480
293.0000;5846.7910
294.0000;5836.0580
295.0000;5832.8330
296.0000;5842.1360
297.0000;5855.2860
298.0000;5865.0870
299.0000;5868.5180
300.0000;5872.4070
301.0000;5886.7530
302.0000;5910.3800
303.0000;5932.0250
304.0000;5943.1790
305.0000;5940.0600
306.0000;5932.2930
307.0000;5933.6120
308.0000;5942.3950
309.0000;5951.2310
310.0000;5954.1070
311.0000;5952.2070
312.0000;5952.6080
313.0000;5963.4810
314.0000;5981.7550
315.0000;5999.4230
316.0000;6010.2530
317.0000;6015.4730
318.0000;6023.1030
319.0000;6045.7660
320.0000;6071.0710
321.0000;6091.7720
322.0000;6102.7380
323.0000;6103.7050
324.0000;6105.0280
325.0000;6115.0570
326.0000;6126.5880
327.0000;6138.8300
328.0000;6151.3420
329.0000;6161.8530
330.0000;6173.5160
331.0000;6187.6430
332.0000;6198.5710
333.0000;6204.3210
334.0000;6202.4950
335.0000;6198.6240
336.0000;6202.6500
337.0000;6216.7480
338.0000;6235.3650
339.0000;6255.0670
340.0000;6273.4770
341.0000;6288.9550
342.0000;6304.8460
343.0000;6317.8190
344.0000;6328.1220
345.0000;6343.7790
346.0000;6360.0130
347.0000;6370.7030
348.0000;6373.2460
349.0000;6367.0180
350.0000;6363.7310
351.0000;6379.2610
352.0000;6404.7230
353.0000;6423.5720
354.0000;6423.3570
355.0000;6408.3390
356.0000;6394.2190
357.0000;6393.4920
358.0000;6400.0380
359.0000;6408.9380
360.0000;6417.4800
361.0000;6425.0660
362.0000;6430.3510
363.0000;6430.9080
364.0000;6429.5630
365.0000;6432.2810
366.0000;6441.6960
367.0000;6452.6740
368.0000;6459.4150
369.0000;6459.1880
370.0000;6460.0440
371.0000;6473.4260
372.0000;6500.9240
373.0000;6526.6000
374.0000;6539.8600
375.0000;6535.8710
376.0000;6525.9940
377.0000;6524.1540
378.0000;6528.6550
379.0000;6537.7600
380.0000;6550.2560
381.0000;6566.1140
382.0000;6586.6450
383.0000;6619.2880
384.0000;6651.4360
385.0000;6675.0000
386.0000;6681.4710
387.0000;6673.1240
388.0000;6669.2440
389.0000;6687.2450
390.0000;6711.3980
391.0000;6728.9280
392.0000;6731.6950
393.0000;6727.2030
394.0000;6728.9550
395.0000;6742.7500
396.0000;6759.1070
397.0000;6770.6800
398.0000;6774.2370
399.0000;6774.6920
400.0000;6779.7670
401.0000;6789.5800
402.0000;6801.3870
403.0000;6817.3210
404.0000;6834.2110
405.0000;6847.7910
406.0000;6858.2500
407.0000;6861.6740
408.0000;6862.2490
409.0000;6864.3850
410.0000;6866.9300
411.0000;6874.2740
412.0000;6892.8510
413.0000;6916.0550
414.0000;6935.1140
415.0000;6941.8300
416.0000;6941.7070
417.0000;6948.7900
418.0000;6973.2620
419.0000;7000.3970
420.0000;7018.4940
421.0000;7020.3140
422.0000;7011.6430
423.0000;7004.2450
424.0000;7000.5950
425.0000;7000.2380
426.0000;7006.7610
427.0000;7020.5810
428.0000;7034.5670
429.0000;7042.0200
430.0000;7041.6340
431.0000;7041.5350
432.0000;7051.0800
433.0000;7066.8150
434.0000;7083.6460
435.0000;7101.2620
436.0000;7114.5140
437.0000;7120.0800
438.0000;7114.4200
439.0000;7102.0480
440.0000;7096.2440
441.0000;7108.3480
442.0000;7128.8050
443.0000;7147.1900
444.0000;7159.2540
445.0000;7164.9520
446.0000;7167.0590
447.0000;7164.4370
448.0000;7161.0400
449.0000;7164.1980
450.0000;7175.1360
451.0000;7190.2270
452.0000;7208.1900
453.0000;7226.0230
454.0000;7239.9000
455.0000;7250.5770
456.0000;7253.5660
457.0000;7252.8610
458.0000;7253.6060
459.0000;7253.7740
460.0000;7256.7640
461.0000;7265.0170
462.0000;7277.5010
463.0000;7293.8490
464.0000;7314.7690
465.0000;7334.3900
466.0000;7349.9050
467.0000;7357.4780
468.0000;7360.5320
469.0000;7369.6030
470.0000;7386.2100
471.0000;7402.6120
472.0000;7415.7760
473.0000;7422.6780
474.0000;7427.5420
475.0000;7438.8300
476.0000;7452.3790
477.0000;7464.1920
478.0000;7474.5370
479.0000;7479.5630
480.0000;7480.8000
481.0000;7478.7130
482.0000;7475.0060
483.0000;7477.7990
484.0000;7494.1670
485.0000;7515.4660
486.0000;7532.6600
487.0000;7539.5650
488.0000;7541.1840
489.0000;7547.4530
490.0000;7559.6400
491.0000;7571.2000
492.0000;7580.0880
493.0000;7583.9470
494.0000;7585.0600
495.0000;7587.5110
496.0000;7590.0580
497.0000;7594.3120
498.0000;7600.9940
499.0000;7610.7710
500.0000;7626.0000
501.0000;7652.9350
502.0000;7681.4060
503.0000;7703.8330
504.0000;7716.1770
505.0000;7715.6610
506.0000;7710.5180
507.0000;7703.0640
508.0000;7693.7360
509.0000;7689.8680
510.0000;7693.6130
511.0000;7701.2230
512.0000;7707.1020
513.0000;7711.2850
514.0000;7718.0340
515.0000;7731.1410
516.0000;7748.5920
517.0000;7768.5170
518.0000;7791.7550
519.0000;7811.7390
520.0000;7826.3800
521.0000;7836.4270
522.0000;7837.6520
523.0000;7837.6920
524.0000;7841.2470
525.0000;7843.4340
526.0000;7843.8170
527.0000;7840.9950
528.0000;7842.5360
529.0000;7859.0140
530.0000;7889.8430
531.0000;7920.8160
532.0000;7939.0420
533.0000;7941.4240
534.0000;7940.8680
535.0000;7954.0710
536.0000;7972.4940
537.0000;7991.2000
538.0000;8007.6430
539.0000;8020.1200
540.0000;8035.9430
541.0000;8060.9690
542.0000;8084.5930
543.0000;8100.9860
544.0000;8105.2500
545.0000;8106.6100
546.0000;8124.0660
547.0000;8157.4560
548.0000;8191.2750
549.0000;8217.1930
550.0000;8227.7210
551.0000;8230.0150
552.0000;8233.8510
553.0000;8234.6030
554.0000;8238.4000
555.0000;8251.5170
556.0000;8270.7460
557.0000;8293.5730
558.0000;8319.9280
559.0000;8345.2120
560.0000;8368.6910
561.0000;8388.5310
562.0000;8401.5450
563.0000;8415.2410
564.0000;8426.7800
565.0000;8429.0710
566.0000;8418.5530
567.0000;8395.9750
568.0000;8379.9610
569.0000;8387.8380
570.0000;8414.7730
571.0000;8441.3600
572.0000;8453.6370
573.0000;8456.2910
574.0000;8458.8210
575.0000;8466.7640
576.0000;8473.8570
577.0000;8481.3460
578.0000;8488.0230
579.0000;8492.9520
580.0000;8498.0970
581.0000;8502.0320
582.0000;8502.9160
583.0000;8501.6740
584.0000;8496.7840
585.0000;8489.3180
586.0000;8479.5380
587.0000;8469.5010
588.0000;8460.1910
589.0000;8452.1170
590.0000;8447.9140
591.0000;8446.3940
592.0000;8447.4780
593.0000;8451.1600
594.0000;8454.3940
595.0000;8456.2560
596.0000;8457.3890
597.0000;8457.3190
598.0000;8456.2220
599.0000;8456.7580
600.0000;8461.3110
601.0000;8469.0230
602.0000;8478.7240
603.0000;8490.2000
604.0000;8500.1720
605.0000;8508.1450
606.0000;8511.9890
607.0000;8513.4190
608.0000;8518.5990
609.0000;8529.1480
610.0000;8539.6480
611.0000;8546.0740
612.0000;8547.5960
613.0000;8550.8560
614.0000;8565.2100
615.0000;8586.1340
616.0000;8605.9020
617.0000;8620.8990
618.0000;8629.9180
619.0000;8640.5420
620.0000;8658.5400
621.0000;8675.9080
622.0000;8695.1810
623.0000;8714.6630
624.0000;8726.1490
625.0000;8727.4090
626.0000;8715.3690
627.0000;8703.9920
628.0000;8709.7360
629.0000;8729.7000
630.0000;8751.1380
631.0000;8765.8900
632.0000;8774.1300
633.0000;8781.3070
634.0000;8790.5870
635.0000;8798.3080
636.0000;8807.5590
637.0000;8818.2520
638.0000;8826.6520
639.0000;8832.0630
640.0000;8832.5090
641.0000;8830.9730
642.0000;8832.4590
643.0000;8835.6250
644.0000;8839.6770
645.0000;8845.2040
646.0000;8850.5630
647.0000;8854.0770
648.0000;8853.0300
649.0000;8852.1690
650.0000;8859.8380
651.0000;8880.1800
652.0000;8898.3340
653.0000;8899.1930
654.0000;8880.5200
655.0000;8861.9530
656.0000;8861.6310
657.0000;8877.5560
658.0000;8898.0000
659.0000;8915.6230
660.0000;8928.3620
661.0000;8934.3290
662.0000;8932.2340
663.0000;8922.4480
664.0000;8912.3040
665.0000;8904.0520
666.0000;8899.7810
667.0000;8902.5680
668.0000;8912.6210
669.0000;8923.3390
670.0000;8926.8150
671.0000;8924.1330
672.0000;8920.3270
673.0000;8919.6070
674.0000;8919.9010
675.0000;8920.7940
676.0000;8921.9810
677.0000;8924.0220
678.0000;8926.9650
679.0000;8930.5920
680.0000;8934.8770
681.0000;8940.3410
682.0000;8946.1460
683.0000;8952.6130
684.0000;8961.4780
685.0000;8969.9260
686.0000;8977.3800
687.0000;8983.5380
688.0000;8987.3140
689.0000;8991.8200
690.0000;8997.3530
691.0000;9002.4560
692.0000;9007.6310
693.0000;9012.1460
694.0000;9018.4880
695.0000;9027.3160
696.0000;9039.8850
697.0000;9061.3390
698.0000;9101.3160
699.0000;9144.0620
700.0000;9177.2800
701.0000;9191.3630
702.0000;9190.8730
703.0000;9195.8360
704.0000;9206.6050
705.0000;9215.5970
706.0000;9219.0890
707.0000;9218.6110
708.0000;9226.4710
709.0000;9261.1140
710.0000;9304.3520
711.0000;9334.2040
712.0000;9334.1640
713.0000;9316.2050
714.0000;9305.8530
715.0000;9311.2140
716.0000;9323.3500
717.0000;9338.7510
718.0000;9355.7980
719.0000;9371.0340
720.0000;9383.4020
721.0000;9389.1750
722.0000;9392.6160
723.0000;9400.2340
724.0000;9402.6320
725.0000;9395.1510
726.0000;9373.9250
727.0000;9353.1400
728.0000;9350.1020
729.0000;9367.6870
730.0000;9392.4130
731.0000;9409.5100
732.0000;9420.3800
733.0000;9431.0020
734.0000;9448.5500
735.0000;9463.0810
736.0000;9472.0010
737.0000;9471.5640
738.0000;9467.7800
739.0000;9473.8310
740.0000;9490.3130
741.0000;9506.9490
742.0000;9515.9750
743.0000;9515.8460
744.0000;9511.0000
745.0000;9503.6450
746.0000;9496.7210
747.0000;9498.6940
748.0000;9516.9890
749.0000;9537.1270
750.0000;9544.5640
751.0000;9534.5210
752.0000;9518.1630
753.0000;9508.3090
754.0000;9504.9010
755.0000;9507.2000
756.0000;9515.1190
757.0000;9526.8630
758.0000;9535.4630
759.0000;9536.0520
760.0000;9531.4530
761.0000;9525.4620
762.0000;9519.2720
763.0000;9516.1560
764.0000;9519.2960
765.0000;9529.3270
766.0000;9543.6000
767.0000;9560.5280
768.0000;9576.0800
769.0000;9587.0430
770.0000;9588.8950
771.0000;9586.7490
772.0000;9591.5850
773.0000;9604.3890
774.0000;9621.6540
775.0000;9642.6010
776.0000;9663.6650
777.0000;9679.6000
778.0000;9691.8750
779.0000;9694.8340
780.0000;9696.0510
781.0000;9698.9440
782.0000;9699.0440
783.0000;9696.6600
784.0000;9691.9420
785.0000;9690.1800
786.0000;9697.4060
787.0000;9712.3450
788.0000;9727.5970
789.0000;9738.8130
790.0000;9745.7730
791.0000;9753.4040
792.0000;9761.9980
793.0000;9770.8760
794.0000;9782.4880
795.0000;9796.0820
796.0000;9811.7090
797.0000;9834.6330
798.0000;9858.7370
799.0000;9881.0370
800.0000;9903.5700
801.0000;9918.9090
802.0000;9933.4300
803.0000;9945.6200
804.0000;9954.5040
805.0000;9969.0620
806.0000;9984.3090
807.0000;9993.0790
808.0000;9991.3050
809.0000;9979.1560
810.0000;9968.2880
811.0000;9967.2710
812.0000;9970.4670
813.0000;9972.2710
814.0000;9971.4100
815.0000;9969.3740
816.0000;9963.4070
817.0000;9956.6180
818.0000;9959.3070
819.0000;9982.8030
820.0000;10016.3800
821.0000;10040.1400
822.0000;10041.2000
823.0000;10030.4500
824.0000;10025.2300
825.0000;10027.9300
826.0000;10038.0400
827.0000;10058.2100
828.0000;10084.6900
829.0000;10112.1900
830.0000;10140.7200
831.0000;10157.6800
832.0000;10160.5400
833.0000;10144.8600
834.0000;10120.6400
835.0000;10104.8300
836.0000;10101.4600
837.0000;10109.8100
838.0000;10134.5900
839.0000;10165.8700
840.0000;10180.0700
841.0000;10157.8600
842.0000;10123.2000
843.0000;10112.5200
844.0000;10135.6600
845.0000;10166.2600
846.0000;10175.7100
847.0000;10166.2900
848.0000;10154.7000
849.0000;10154.9600
850.0000;10160.1100
851.0000;10165.5300
852.0000;10168.2000
853.0000;10173.3000
854.0000;10187.4800
855.0000;10207.9000
856.0000;10224.4600
857.0000;10225.9100
858.0000;10215.8900
859.0000;10211.5400
860.0000;10224.1700
861.0000;10245.4500
862.0000;10269.7100
863.0000;10292.5300
864.0000;10310.3900
865.0000;10319.0900
866.0000;10317.2400
867.0000;10320.2900
868.0000;10346.7600
869.0000;10379.7500
870.0000;10405.5600
871.0000;10415.1300
872.0000;10415.8000
873.0000;10423.3900
874.0000;10434.8400
875.0000;10445.2500
876.0000;10455.9000
877.0000;10462.5100
878.0000;10464.7100
879.0000;10461.6200
880.0000;10455.7700
881.0000;10453.8200
882.0000;10457.5500
883.0000;10466.3000
884.0000;10478.4400
885.0000;10494.1100
886.0000;10513.9600
887.0000;10541.4500
888.0000;10566.1600
889.0000;10582.4700
890.0000;10584.3100
891.0000;10583.4700
892.0000;10600.5900
893.0000;10630.3300
894.0000;10660.6000
895.0000;10686.0400
896.0000;10702.3100
897.0000;10717.3500
898.0000;10732.9400
899.0000;10742.1900
900.0000;10747.4900
901.0000;10747.0100
902.0000;10749.3200
903.0000;10767.1300
904.0000;10792.8400
905.0000;10814.9900
906.0000;10826.5000
907.0000;10833.2700
908.0000;10849.0800
909.0000;10873.0000
910.0000;10896.8500
911.0000;10919.5900
912.0000;10935.7500
913.0000;10948.2100
914.0000;10959.8800
915.0000;10968.7100
916.0000;10986.5600
917.0000;11014.3000
918.0000;11034.0200
919.0000;11030.8600
920.0000;11006.7300
921.0000;10984.7600
922.0000;10983.2600
923.0000;10995.9800
924.0000;11011.6700
925.0000;11026.3900
926.0000;11045.9600
927.0000;11077.6400
928.0000;11115.1300
929.0000;11143.4000
930.0000;11157.9200
931.0000;11155.9600
932.0000;11154.9600
933.0000;11161.0100
934.0000;11169.5300
935.0000;11185.8300
936.0000;11205.4200
937.0000;11218.8200
938.0000;11217.5700
939.0000;11205.8600
940.0000;11202.6400
941.0000;11218.8500
942.0000;11236.2700
943.0000;11234.4700
944.0000;11213.0200
945.0000;11193.0200
946.0000;11192.8200
947.0000;11209.4800
948.0000;11235.1400
949.0000;11263.8900
950.0000;11292.3200
951.0000;11317.8600
952.0000;11333.0400
953.0000;11341.2600
954.0000;11349.8500
955.0000;11354.9100
956.0000;11367.7600
957.0000;11397.1100
958.0000;11424.2800
959.0000;11434.7000
960.0000;11421.8500
961.0000;11403.4400
962.0000;11401.7400
963.0000;11409.9000
964.0000;11418.8600
965.0000;11421.3800
966.0000;11424.2100
967.0000;11434.0000
968.0000;11450.9300
969.0000;11465.6600
970.0000;11469.6500
971.0000;11466.7100
972.0000;11472.9900
973.0000;11497.6900
974.0000;11531.5100
975.0000;11570.8300
976.0000;11607.1100
977.0000;11634.3200
978.0000;11654.0600
979.0000;11656.4300
980.0000;11648.8700
981.0000;11635.1500
982.0000;11621.3800
983.0000;11622.7900
984.0000;11643.9800
985.0000;11677.1900
986.0000;11718.4700
987.0000;11759.9100
988.0000;11799.6700
989.0000;11832.7900
990.0000;11854.2800
991.0000;11877.0400
992.0000;11895.3900
993.0000;11904.7400
994.0000;11905.5300
995.0000;11899.5200
996.0000;11907.5200
997.0000;11943.3500
998.0000;11986.7500
999.0000;12017.6400
1000.0000;12028.4700
1001.0000;12026.1200
1002.0000;12022.5800
1003.0000;12014.4900
1004.0000;12014.4300
1005.0000;12030.2000
1006.0000;12051.8200
1007.0000;12069.3700
1008.0000;12078.2100
1009.0000;12079.5700
1010.0000;12072.4000
1011.0000;12061.7200
1012.0000;12063.7500
1013.0000;12089.3700
1014.0000;12120.3800
1015.0000;12141.8100
1016.0000;12147.2200
1017.0000;12144.1200
1018.0000;12141.1100
1019.0000;12135.4600
1020.0000;12135.8800
1021.0000;12146.9300
1022.0000;12159.5100
1023.0000;12163.4800
1024.0000;12159.5000
1025.0000;12161.6300
1026.0000;12186.5300
1027.0000;12216.6100
1028.0000;12229.4400
1029.0000;12213.1900
1030.0000;12192.5600
1031.0000;12197.0600
1032.0000;12222.6400
1033.0000;12249.9800
1034.0000;12265.5100
1035.0000;12272.5000
1036.0000;12277.8800
1037.0000;12281.4100
1038.0000;12287.4000
1039.0000;12307.2200
1040.0000;12333.9000
1041.0000;12356.7100
1042.0000;12368.3200
1043.0000;12371.4600
1044.0000;12376.9800
1045.0000;12385.0700
1046.0000;12400.2600
