Raman Shift ; Dark Subtracted #1
-2.0000;359.6477
-1.0000;332.4438
0.0000;293.6577
1.0000;245.9575
2.0000;192.8167
3.0000;141.1314
4.0000;99.0404
5.0000;64.0089
6.0000;41.0043
7.0000;33.6218
8.0000;27.8512
9.0000;23.1976
10.0000;23.8770
11.0000;23.0643
12.0000;18.3997
13.0000;14.6965
14.0000;13.3156
15.0000;15.6385
16.0000;19.2905
17.0000;20.4903
18.0000;16.7366
19.0000;11.5232
20.0000;8.4820
21.0000;10.6493
22.0000;14.3745
23.0000;15.3714
24.0000;10.0119
25.0000;2.8658
26.0000;-2.3532
27.0000;-2.0124
28.0000;1.7243
29.0000;5.2682
30.0000;4.6871
31.0000;3.5526
32.0000;4.6773
33.0000;11.7592
34.0000;20.6542
35.0000;27.1260
36.0000;27.4203
37.0000;23.4196
38.0000;19.2787
39.0000;20.9210
40.0000;24.2320
41.0000;25.6517
42.0000;20.9051
43.0000;12.8780
44.0000;5.8448
45.0000;2.8995
46.0000;4.2450
47.0000;7.8986
48.0000;12.3549
49.0000;17.4121
50.0000;20.7845
51.0000;19.2074
52.0000;14.2247
53.0000;10.8522
54.0000;14.0369
55.0000;22.5304
56.0000;32.7429
57.0000;41.4227
58.0000;48.1193
59.0000;54.2408
60.0000;61.0906
61.0000;67.5227
62.0000;76.2208
63.0000;89.5113
64.0000;106.0257
65.0000;128.7515
66.0000;160.5829
67.0000;198.1140
68.0000;241.1683
69.0000;292.7501
70.0000;345.1162
71.0000;400.2206
72.0000;470.9690
73.0000;543.0480
74.0000;609.0699
75.0000;676.4468
76.0000;726.5845
77.0000;772.1613
78.0000;841.1809
79.0000;918.6870
80.0000;993.9818
81.0000;1071.9180
82.0000;1137.6910
83.0000;1202.6780
84.0000;1292.9060
85.0000;1393.9280
86.0000;1492.8570
87.0000;1598.9880
88.0000;1692.7050
89.0000;1779.1430
90.0000;1884.2290
91.0000;1990.7440
92.0000;2088.4680
93.0000;2195.9210
94.0000;2293.6340
95.0000;2385.7630
96.0000;2502.9920
97.0000;2629.3910
98.0000;2744.2610
99.0000;2861.1160
100.0000;2960.5890
101.0000;3037.1010
102.0000;3132.6360
103.0000;3231.6840
104.0000;3318.9600
105.0000;3406.5000
106.0000;3480.3910
107.0000;3541.7450
108.0000;3626.1230
109.0000;3718.1790
110.0000;3801.4530
111.0000;3887.0100
112.0000;3962.2160
113.0000;4016.4090
114.0000;4074.4040
115.0000;4126.0460
116.0000;4166.8110
117.0000;4216.4900
118.0000;4269.9140
119.0000;4314.4010
120.0000;4353.7080
121.0000;4380.8700
122.0000;4397.2450
123.0000;4419.5220
124.0000;4445.4720
125.0000;4469.2420
126.0000;4493.9270
127.0000;4516.3270
128.0000;4538.5750
129.0000;4570.1380
130.0000;4608.9790
131.0000;4646.4930
132.0000;4679.5210
133.0000;4702.5490
134.0000;4719.5090
135.0000;4745.2680
136.0000;4778.0930
137.0000;4806.1590
138.0000;4825.6150
139.0000;4831.5830
140.0000;4829.0530
141.0000;4831.3990
142.0000;4839.2010
143.0000;4848.7980
144.0000;4862.5460
145.0000;4878.4490
146.0000;4894.5710
147.0000;4911.9970
148.0000;4926.9530
149.0000;4939.2320
150.0000;4951.3080
151.0000;4961.3620
152.0000;4969.5990
153.0000;4982.5340
154.0000;4999.1200
155.0000;5013.0890
156.0000;5024.6790
157.0000;5030.1840
158.0000;5030.8970
159.0000;5031.3290
160.0000;5030.5580
161.0000;5029.6600
162.0000;5030.9130
163.0000;5034.6410
164.0000;5042.5770
165.0000;5056.5910
166.0000;5076.4640
167.0000;5096.1730
168.0000;5113.3320
169.0000;5123.6090
170.0000;5131.9300
171.0000;5147.8970
172.0000;5168.4500
173.0000;5183.4530
174.0000;5188.1170
175.0000;5179.2190
176.0000;5168.6660
177.0000;5170.9750
178.0000;5184.7560
179.0000;5200.7150
180.0000;5208.5080
181.0000;5208.2770
182.0000;5207.8770
183.0000;5216.1090
184.0000;5231.2100
185.0000;5248.3700
186.0000;5266.6650
187.0000;5282.3580
188.0000;5297.1340
189.0000;5314.7870
190.0000;5329.7970
191.0000;5342.7630
192.0000;5357.3960
193.0000;5368.3200
194.0000;5376.9450
195.0000;5389.3710
196.0000;5399.5510
197.0000;5402.9110
198.0000;5397.1670
199.0000;5382.2570
200.0000;5367.8580
201.0000;5361.7100
202.0000;5364.3160
203.0000;5373.5910
204.0000;5386.4900
205.0000;5403.7140
206.0000;5420.4980
207.0000;5432.9450
208.0000;5440.5640
209.0000;5447.8690
210.0000;5462.4180
211.0000;5476.7710
212.0000;5490.0470
213.0000;5503.7420
214.0000;5512.1370
215.0000;5516.8000
216.0000;5517.6620
217.0000;5515.3620
218.0000;5517.9090
219.0000;5534.0220
220.0000;5556.0300
221.0000;5576.8230
222.0000;5591.8920
223.0000;5600.3120
224.0000;5605.5750
225.0000;5610.2730
226.0000;5612.1980
227.0000;5616.9030
228.0000;5627.8260
229.0000;5641.6340
230.0000;5657.9350
231.0000;5675.9580
232.0000;5693.0440
233.0000;5709.1340
234.0000;5724.1520
235.0000;5733.5120
236.0000;5739.7020
237.0000;5742.8540
238.0000;5742.5000
239.0000;5744.6610
240.0000;5751.3040
241.0000;5759.6750
242.0000;5769.9720
243.0000;5782.7180
244.0000;5792.3030
245.0000;5794.3300
246.0000;5785.3500
247.0000;5776.1840
248.0000;5781.3300
249.0000;5804.3010
250.0000;5830.3460
251.0000;5848.2050
252.0000;5851.9520
253.0000;5850.0940
254.0000;5854.2050
255.0000;5863.4580
256.0000;5873.9240
257.0000;5886.4910
258.0000;5898.5740
259.0000;5906.6300
260.0000;5908.7930
261.0000;5903.7830
262.0000;5897.8010
263.0000;5897.9170
264.0000;5904.1840
265.0000;5915.6310
266.0000;5931.6980
267.0000;5951.0570
268.0000;5971.4600
269.0000;5994.9250
270.0000;6014.5970
271.0000;6027.9190
272.0000;6036.1100
273.0000;6034.8730
274.0000;6031.6740
275.0000;6036.1510
276.0000;6042.3050
277.0000;6048.0000
278.0000;6050.2040
279.0000;6051.3680
280.0000;6056.2380
281.0000;6070.6870
282.0000;6087.7830
283.0000;6101.3100
284.0000;6104.0110
285.0000;6102.7950
286.0000;6110.7090
287.0000;6140.0780
288.0000;6172.0140
289.0000;6190.0160
290.0000;6179.7510
291.0000;6159.4500
292.0000;6155.0960
293.0000;6179.2580
294.0000;6212.0280
295.0000;6237.1230
296.0000;6246.9170
297.0000;6244.2290
298.0000;6234.5290
299.0000;6217.1520
300.0000;6200.0830
301.0000;6194.3380
302.0000;6204.2530
303.0000;6223.4980
304.0000;6244.7720
305.0000;6266.2490
306.0000;6286.2970
307.0000;6304.5780
308.0000;6317.1620
309.0000;6326.9050
310.0000;6343.2430
311.0000;6360.2650
312.0000;6374.8130
313.0000;6389.6440
314.0000;6399.0080
315.0000;6402.1610
316.0000;6400.2920
317.0000;6393.1000
318.0000;6389.1410
319.0000;6397.8200
320.0000;6413.7150
321.0000;6430.2520
322.0000;6442.5040
323.0000;6450.6070
324.0000;6458.1230
325.0000;6467.8400
326.0000;6475.5700
327.0000;6482.6940
328.0000;6489.3710
329.0000;6495.0790
330.0000;6504.5010
331.0000;6520.1380
332.0000;6535.7620
333.0000;6546.7990
334.0000;6550.1960
335.0000;6550.1970
336.0000;6555.1880
337.0000;6566.0980
338.0000;6580.4670
339.0000;6599.7170
340.0000;6622.5130
341.0000;6641.6880
342.0000;6656.0620
343.0000;6661.4560
344.0000;6661.7730
345.0000;6665.1750
346.0000;6669.6860
347.0000;6676.2410
348.0000;6689.4140
349.0000;6706.4100
350.0000;6721.5350
351.0000;6733.7820
352.0000;6739.8450
353.0000;6742.1080
354.0000;6746.1570
355.0000;6747.1950
356.0000;6746.3760
357.0000;6744.0690
358.0000;6741.4590
359.0000;6742.0590
360.0000;6749.6140
361.0000;6759.5970
362.0000;6767.4760
363.0000;6769.0990
364.0000;6767.9700
365.0000;6769.5470
366.0000;6776.1720
367.0000;6783.5380
368.0000;6788.4960
369.0000;6789.6140
370.0000;6788.6090
371.0000;6788.1520
372.0000;6788.3900
373.0000;6790.7500
374.0000;6797.8350
375.0000;6808.8470
376.0000;6821.1500
377.0000;6832.1050
378.0000;6840.2010
379.0000;6846.0760
380.0000;6851.7720
381.0000;6855.7810
382.0000;6862.4310
383.0000;6878.4550
384.0000;6897.7660
385.0000;6916.6000
386.0000;6931.3300
387.0000;6940.4400
388.0000;6951.3130
389.0000;6969.7360
390.0000;6988.0060
391.0000;7003.6360
392.0000;7015.4200
393.0000;7022.5060
394.0000;7033.3180
395.0000;7050.0900
396.0000;7064.7690
397.0000;7072.9060
398.0000;7071.2470
399.0000;7066.9180
400.0000;7072.2200
401.0000;7088.1630
402.0000;7105.1470
403.0000;7116.6110
404.0000;7120.2940
405.0000;7123.8740
406.0000;7138.0900
407.0000;7157.4480
408.0000;7176.4670
409.0000;7191.3500
410.0000;7199.0810
411.0000;7204.8170
412.0000;7214.6310
413.0000;7223.5540
414.0000;7233.3940
415.0000;7246.5760
416.0000;7259.1670
417.0000;7270.7650
418.0000;7280.1020
419.0000;7287.4430
420.0000;7298.4690
421.0000;7314.8870
422.0000;7329.8760
423.0000;7339.8150
424.0000;7341.4210
425.0000;7338.5250
426.0000;7339.7680
427.0000;7344.9800
428.0000;7349.5430
429.0000;7351.4640
430.0000;7349.9870
431.0000;7347.6170
432.0000;7347.3260
433.0000;7348.2640
434.0000;7348.9870
435.0000;7348.4340
436.0000;7346.9540
437.0000;7345.1000
438.0000;7341.1630
439.0000;7338.8770
440.0000;7341.8200
441.0000;7354.0020
442.0000;7369.5860
443.0000;7380.5430
444.0000;7381.7400
445.0000;7379.6510
446.0000;7384.8390
447.0000;7400.1890
448.0000;7416.7580
449.0000;7429.1780
450.0000;7433.8460
451.0000;7437.4200
452.0000;7450.8460
453.0000;7470.3450
454.0000;7486.6360
455.0000;7494.2210
456.0000;7491.9270
457.0000;7490.1690
458.0000;7499.8840
459.0000;7515.8640
460.0000;7534.2100
461.0000;7554.6810
462.0000;7573.6350
463.0000;7592.5640
464.0000;7613.5140
465.0000;7628.5850
466.0000;7638.6900
467.0000;7641.5960
468.0000;7640.0530
469.0000;7644.7600
470.0000;7657.7430
471.0000;7671.2720
472.0000;7681.5610
473.0000;7685.9560
474.0000;7686.2380
475.0000;7686.6170
476.0000;7685.3090
477.0000;7683.3970
478.0000;7679.7160
479.0000;7678.0130
480.0000;7684.6000
481.0000;7706.8290
482.0000;7736.8260
483.0000;7763.3030
484.0000;7777.1290
485.0000;7782.6270
486.0000;7792.9900
487.0000;7813.8040
488.0000;7834.5460
489.0000;7852.6020
490.0000;7864.1140
491.0000;7870.9090
492.0000;7881.6150
493.0000;7893.5480
494.0000;7902.3860
495.0000;7909.0580
496.0000;7910.5810
497.0000;7908.9090
498.0000;7907.2760
499.0000;7904.7660
500.0000;7904.0000
501.0000;7909.3930
502.0000;7916.4960
503.0000;7919.5870
504.0000;7913.0050
505.0000;7903.4450
506.0000;7899.7640
507.0000;7907.3560
508.0000;7918.8330
509.0000;7924.3010
510.0000;7921.1470
511.0000;7916.7360
512.0000;7920.1210
513.0000;7930.5880
514.0000;7939.2240
515.0000;7935.7840
516.0000;7923.3770
517.0000;7915.4070
518.0000;7925.2800
519.0000;7947.1340
520.0000;7970.3160
521.0000;7989.5040
522.0000;8000.8260
523.0000;8003.5720
524.0000;7993.7840
525.0000;7980.3900
526.0000;7980.3540
527.0000;8001.0480
528.0000;8026.6170
529.0000;8041.3340
530.0000;8039.7490
531.0000;8033.8580
532.0000;8035.6860
533.0000;8043.9920
534.0000;8057.8550
535.0000;8078.7980
536.0000;8102.1350
537.0000;8121.6000
538.0000;8134.5900
539.0000;8137.9410
540.0000;8140.5720
541.0000;8146.5910
542.0000;8154.3130
543.0000;8168.8200
544.0000;8192.1550
545.0000;8214.9090
546.0000;8231.2930
547.0000;8235.6520
548.0000;8234.9280
549.0000;8241.6770
550.0000;8251.9500
551.0000;8260.2250
552.0000;8263.0800
553.0000;8260.7810
554.0000;8260.0000
555.0000;8266.9410
556.0000;8278.1460
557.0000;8290.7250
558.0000;8304.7050
559.0000;8315.7000
560.0000;8320.7430
561.0000;8317.3000
562.0000;8310.4720
563.0000;8310.7790
564.0000;8319.3760
565.0000;8329.8110
566.0000;8335.9660
567.0000;8337.4130
568.0000;8337.3370
569.0000;8340.0790
570.0000;8343.1880
571.0000;8345.5080
572.0000;8348.6820
573.0000;8349.1550
574.0000;8344.5920
575.0000;8330.8020
576.0000;8317.6470
577.0000;8314.8480
578.0000;8327.4880
579.0000;8347.4440
580.0000;8362.0670
581.0000;8369.7480
582.0000;8377.5030
583.0000;8395.2940
584.0000;8417.2870
585.0000;8433.1320
586.0000;8437.8120
587.0000;8431.2100
588.0000;8425.2450
589.0000;8431.0160
590.0000;8439.3440
591.0000;8442.9340
592.0000;8436.9160
593.0000;8430.6630
594.0000;8434.5690
595.0000;8450.8940
596.0000;8470.6360
597.0000;8485.2380
598.0000;8492.2760
599.0000;8492.9290
600.0000;8491.6360
601.0000;8485.3850
602.0000;8476.9180
603.0000;8466.4580
604.0000;8459.4150
605.0000;8461.3670
606.0000;8477.7880
607.0000;8498.9590
608.0000;8509.0770
609.0000;8501.6660
610.0000;8490.4540
611.0000;8490.0110
612.0000;8501.8740
613.0000;8522.2020
614.0000;8552.0830
615.0000;8585.8560
616.0000;8614.1340
617.0000;8636.5980
618.0000;8645.1000
619.0000;8647.8380
620.0000;8647.0730
621.0000;8646.0910
622.0000;8660.5490
623.0000;8696.9070
624.0000;8734.1700
625.0000;8759.1990
626.0000;8763.2070
627.0000;8755.8330
628.0000;8750.8540
629.0000;8744.7130
630.0000;8740.4900
631.0000;8740.2950
632.0000;8745.8570
633.0000;8757.0540
634.0000;8773.3450
635.0000;8792.8750
636.0000;8813.0260
637.0000;8830.7710
638.0000;8842.6080
639.0000;8849.0160
640.0000;8846.8530
641.0000;8841.3810
642.0000;8839.2870
643.0000;8840.9800
644.0000;8849.2450
645.0000;8868.0170
646.0000;8892.5550
647.0000;8914.0560
648.0000;8925.8220
649.0000;8930.9580
650.0000;8940.7640
651.0000;8958.3750
652.0000;8974.0810
653.0000;8985.3540
654.0000;8988.6020
655.0000;8986.7910
656.0000;8985.9250
657.0000;8983.7920
658.0000;8982.0000
659.0000;8978.6320
660.0000;8979.5810
661.0000;8991.1120
662.0000;9020.1640
663.0000;9053.0670
664.0000;9075.9340
665.0000;9080.7210
666.0000;9075.2920
667.0000;9074.7040
668.0000;9076.3040
669.0000;9076.5430
670.0000;9073.7000
671.0000;9069.4300
672.0000;9068.1170
673.0000;9074.0260
674.0000;9083.3140
675.0000;9090.9640
676.0000;9094.7020
677.0000;9093.0800
678.0000;9084.9790
679.0000;9070.1980
680.0000;9057.8490
681.0000;9055.1620
682.0000;9064.2590
683.0000;9078.7710
684.0000;9089.1220
685.0000;9100.3710
686.0000;9118.4370
687.0000;9148.5020
688.0000;9180.4950
689.0000;9209.6860
690.0000;9230.5460
691.0000;9243.1560
692.0000;9259.1220
693.0000;9273.4380
694.0000;9280.6460
695.0000;9278.9380
696.0000;9269.7780
697.0000;9268.3260
698.0000;9290.8740
699.0000;9323.6740
700.0000;9351.3990
701.0000;9364.4650
702.0000;9366.5630
703.0000;9368.4660
704.0000;9369.7130
705.0000;9370.2090
706.0000;9372.9420
707.0000;9378.4330
708.0000;9389.9190
709.0000;9413.8140
710.0000;9441.4950
711.0000;9463.6330
712.0000;9473.9590
713.0000;9473.4430
714.0000;9473.2810
715.0000;9475.3620
716.0000;9476.6340
717.0000;9478.3490
718.0000;9480.4330
719.0000;9484.7130
720.0000;9489.4070
721.0000;9498.3830
722.0000;9519.6730
723.0000;9561.3080
724.0000;9606.6870
725.0000;9641.2040
726.0000;9654.2360
727.0000;9652.1970
728.0000;9655.6020
729.0000;9661.6850
730.0000;9664.9170
731.0000;9665.7870
732.0000;9663.2640
733.0000;9660.5000
734.0000;9659.5060
735.0000;9661.0540
736.0000;9667.0860
737.0000;9679.6230
738.0000;9692.0470
739.0000;9697.7630
740.0000;9694.5000
741.0000;9691.8160
742.0000;9703.9790
743.0000;9724.0980
744.0000;9738.2000
745.0000;9736.2240
746.0000;9721.4540
747.0000;9705.2140
748.0000;9693.1880
749.0000;9684.2790
750.0000;9676.5620
751.0000;9671.9310
752.0000;9669.9880
753.0000;9665.5370
754.0000;9661.9940
755.0000;9662.6000
756.0000;9669.9490
757.0000;9681.0100
758.0000;9689.6130
759.0000;9691.5050
760.0000;9688.4870
761.0000;9683.5830
762.0000;9677.5150
763.0000;9672.9140
764.0000;9673.0030
765.0000;9678.2410
766.0000;9685.6000
767.0000;9689.8580
768.0000;9694.6100
769.0000;9704.1590
770.0000;9720.2860
771.0000;9737.9670
772.0000;9753.4210
773.0000;9763.7400
774.0000;9769.6880
775.0000;9774.6200
776.0000;9776.8750
777.0000;9781.6000
778.0000;9796.0450
779.0000;9813.5670
780.0000;9831.3920
781.0000;9847.5180
782.0000;9858.9460
783.0000;9871.5760
784.0000;9881.9070
785.0000;9884.3530
786.0000;9875.3150
787.0000;9856.8010
788.0000;9844.8880
789.0000;9851.4960
790.0000;9870.7800
791.0000;9892.7270
792.0000;9910.6920
793.0000;9925.2860
794.0000;9936.5860
795.0000;9941.9540
796.0000;9945.0560
797.0000;9952.3560
798.0000;9962.3880
799.0000;9978.8620
800.0000;10011.7900
801.0000;10042.5400
802.0000;10057.7200
803.0000;10046.2800
804.0000;10026.6600
805.0000;10028.0500
806.0000;10049.3200
807.0000;10073.6800
808.0000;10086.3700
809.0000;10089.5200
810.0000;10090.6600
811.0000;10094.5900
812.0000;10098.2000
813.0000;10104.2400
814.0000;10113.1500
815.0000;10122.3800
816.0000;10132.3800
817.0000;10140.7200
818.0000;10145.1400
819.0000;10149.2500
820.0000;10146.4500
821.0000;10133.5600
822.0000;10106.4400
823.0000;10081.6900
824.0000;10082.2000
825.0000;10112.7600
826.0000;10145.6000
827.0000;10145.4600
828.0000;10121.3100
829.0000;10100.5900
830.0000;10105.6100
831.0000;10127.0400
832.0000;10153.6700
833.0000;10182.4700
834.0000;10207.6800
835.0000;10226.1800
836.0000;10232.1500
837.0000;10231.8300
838.0000;10237.7900
839.0000;10241.5300
840.0000;10241.3300
841.0000;10235.7500
842.0000;10227.8700
843.0000;10223.8700
844.0000;10225.8300
845.0000;10230.1500
846.0000;10233.9300
847.0000;10236.0700
848.0000;10233.8400
849.0000;10223.8600
850.0000;10210.3600
851.0000;10200.3500
852.0000;10197.3500
853.0000;10202.0900
854.0000;10210.8800
855.0000;10224.1400
856.0000;10243.2500
857.0000;10272.1100
858.0000;10300.7800
859.0000;10318.6200
860.0000;10316.1200
861.0000;10303.5400
862.0000;10304.8700
863.0000;10324.5500
864.0000;10348.8800
865.0000;10367.5900
866.0000;10377.3000
867.0000;10380.9400
868.0000;10381.0400
869.0000;10377.7600
870.0000;10381.9800
871.0000;10398.5400
872.0000;10417.6800
873.0000;10431.8400
874.0000;10437.8500
875.0000;10440.2000
876.0000;10445.9100
877.0000;10450.2600
878.0000;10453.9000
879.0000;10457.3500
880.0000;10459.7100
881.0000;10462.6700
882.0000;10465.9400
883.0000;10470.2100
884.0000;10475.9000
885.0000;10483.3300
886.0000;10495.1800
887.0000;10514.7700
888.0000;10535.8200
889.0000;10554.0500
890.0000;10564.9000
891.0000;10575.3300
892.0000;10599.4300
893.0000;10630.3200
894.0000;10656.8000
895.0000;10672.3900
896.0000;10677.3900
897.0000;10688.8200
898.0000;10713.7600
899.0000;10738.2600
900.0000;10758.6400
901.0000;10768.9400
902.0000;10769.5600
903.0000;10763.0400
904.0000;10750.3500
905.0000;10746.8400
906.0000;10761.9400
907.0000;10784.7000
908.0000;10801.6400
909.0000;10808.6900
910.0000;10816.2500
911.0000;10839.2200
912.0000;10868.1300
913.0000;10889.2300
914.0000;10893.6100
915.0000;10889.3900
916.0000;10898.0200
917.0000;10923.9800
918.0000;10948.8800
919.0000;10956.9300
920.0000;10948.8800
921.0000;10941.2000
922.0000;10950.6700
923.0000;10964.6000
924.0000;10971.6000
925.0000;10966.9900
926.0000;10959.5800
927.0000;10958.3600
928.0000;10964.1200
929.0000;10975.2000
930.0000;10992.4500
931.0000;11011.2600
932.0000;11025.6800
933.0000;11029.1600
934.0000;11032.5000
935.0000;11054.6300
936.0000;11089.7700
937.0000;11120.0100
938.0000;11133.0500
939.0000;11129.8300
940.0000;11128.8700
941.0000;11138.3400
942.0000;11151.2800
943.0000;11169.3600
944.0000;11188.8800
945.0000;11199.2700
946.0000;11191.8100
947.0000;11170.5900
948.0000;11152.8400
949.0000;11149.8600
950.0000;11155.8600
951.0000;11164.7900
952.0000;11175.5800
953.0000;11185.0900
954.0000;11185.1800
955.0000;11181.8000
956.0000;11191.2800
957.0000;11226.2000
958.0000;11262.4100
959.0000;11274.5400
960.0000;11254.7400
961.0000;11233.3000
962.0000;11244.8500
963.0000;11276.5200
964.0000;11308.3400
965.0000;11324.7100
966.0000;11333.4400
967.0000;11346.3900
968.0000;11362.6500
969.0000;11376.9900
970.0000;11392.6700
971.0000;11404.3000
972.0000;11415.5800
973.0000;11426.7800
974.0000;11437.9100
975.0000;11455.8900
976.0000;11478.5800
977.0000;11505.5600
978.0000;11542.9500
979.0000;11579.0200
980.0000;11602.9800
981.0000;11608.5800
982.0000;11598.1700
983.0000;11592.8900
984.0000;11593.8300
985.0000;11590.0600
986.0000;11567.0300
987.0000;11540.5200
988.0000;11535.7800
989.0000;11572.6200
990.0000;11626.9100
991.0000;11661.4400
992.0000;11665.3800
993.0000;11660.3300
994.0000;11672.6800
995.0000;11689.2400
996.0000;11701.1300
997.0000;11701.9100
998.0000;11699.9300
999.0000;11709.3800
1000.0000;11731.2400
1001.0000;11755.1200
1002.0000;11775.5700
1003.0000;11789.2700
1004.0000;11799.1200
1005.0000;11805.6300
1006.0000;11808.2500
1007.0000;11813.9500
1008.0000;11822.0000
1009.0000;11834.3600
1010.0000;11853.9300
1011.0000;11876.5700
1012.0000;11903.1900
1013.0000;11931.2300
1014.0000;11956.2900
1015.0000;11988.8700
1016.0000;12019.0500
1017.0000;12032.5500
1018.0000;12024.1000
1019.0000;11995.5700
1020.0000;11971.6100
1021.0000;11963.4500
1022.0000;11969.4400
1023.0000;11989.5000
1024.0000;12022.0100
1025.0000;12050.4500
1026.0000;12063.0800
1027.0000;12059.8100
1028.0000;12051.7500
1029.0000;12041.6200
1030.0000;12031.6400
1031.0000;12028.1700
1032.0000;12032.2300
1033.0000;12039.9700
1034.0000;12048.1100
1035.0000;12056.4800
1036.0000;12062.9600
1037.0000;12066.0700
1038.0000;12068.6900
1039.0000;12074.5200
1040.0000;12083.0800
1041.0000;12096.5500
1042.0000;12116.2600
1043.0000;12137.6600
1044.0000;12162.3200
1045.0000;12185.4200
1046.0000;12202.6200
