Raman Shift ; Dark Subtracted #1
-2.0000;15938.7200
-1.0000;15397.3300
0.0000;14426.8400
1.0000;12902.9600
2.0000;10797.3400
3.0000;8266.6490
4.0000;5844.5420
5.0000;3749.7920
6.0000;2251.8210
7.0000;1543.1070
8.0000;1040.0560
9.0000;800.7258
10.0000;929.8677
11.0000;920.3394
12.0000;587.6799
13.0000;257.9941
14.0000;19.4809
15.0000;-59.0678
16.0000;-10.2564
17.0000;40.1010
18.0000;34.6154
19.0000;35.1135
20.0000;36.7675
21.0000;36.7283
22.0000;37.9416
23.0000;39.8899
24.0000;43.0551
25.0000;45.3907
26.0000;44.7809
27.0000;38.1637
28.0000;29.5201
29.0000;23.9421
30.0000;25.3640
31.0000;31.7428
32.0000;38.9941
33.0000;44.8381
34.0000;48.6233
35.0000;49.1653
36.0000;44.6803
37.0000;37.3625
38.0000;31.6895
39.0000;33.9211
40.0000;40.1747
41.0000;44.5271
42.0000;40.9584
43.0000;32.4300
44.0000;23.3100
45.0000;16.6196
46.0000;13.0076
47.0000;11.9759
48.0000;11.9815
49.0000;14.6592
50.0000;18.4449
51.0000;20.8364
52.0000;22.8967
53.0000;26.0209
54.0000;32.1833
55.0000;39.7456
56.0000;46.8896
57.0000;53.0183
58.0000;56.5947
59.0000;58.5978
60.0000;59.0725
61.0000;58.5411
62.0000;62.0575
63.0000;76.3435
64.0000;98.2082
65.0000;121.4301
66.0000;138.7433
67.0000;149.3600
68.0000;163.0908
69.0000;192.5231
70.0000;232.1774
71.0000;275.1608
72.0000;320.3024
73.0000;359.6922
74.0000;395.2363
75.0000;437.1479
76.0000;474.1692
77.0000;511.5499
78.0000;564.9321
79.0000;623.8885
80.0000;680.0979
81.0000;735.9822
82.0000;780.3127
83.0000;822.2173
84.0000;882.4125
85.0000;950.7182
86.0000;1017.2100
87.0000;1086.6930
88.0000;1146.2420
89.0000;1202.5270
90.0000;1275.3900
91.0000;1353.8910
92.0000;1430.2330
93.0000;1515.4540
94.0000;1595.3000
95.0000;1673.0170
96.0000;1768.7670
97.0000;1869.9090
98.0000;1965.0290
99.0000;2069.8320
100.0000;2169.7090
101.0000;2252.8960
102.0000;2347.3340
103.0000;2437.0170
104.0000;2518.3460
105.0000;2612.5390
106.0000;2707.4830
107.0000;2795.1240
108.0000;2901.8260
109.0000;3006.5320
110.0000;3099.4490
111.0000;3199.1930
112.0000;3292.3190
113.0000;3368.2810
114.0000;3458.3400
115.0000;3550.0670
116.0000;3635.5440
117.0000;3733.0290
118.0000;3831.9850
119.0000;3920.9950
120.0000;4013.5410
121.0000;4097.5530
122.0000;4166.7280
123.0000;4242.0540
124.0000;4314.0700
125.0000;4374.5650
126.0000;4439.7960
127.0000;4501.5040
128.0000;4555.5760
129.0000;4619.3830
130.0000;4686.2580
131.0000;4745.7750
132.0000;4804.1540
133.0000;4852.9280
134.0000;4894.2180
135.0000;4949.2720
136.0000;5013.5310
137.0000;5072.5180
138.0000;5126.2830
139.0000;5167.0970
140.0000;5194.8940
141.0000;5232.7020
142.0000;5277.2140
143.0000;5314.5610
144.0000;5352.7070
145.0000;5382.3110
146.0000;5404.3270
147.0000;5432.8070
148.0000;5461.9140
149.0000;5487.2660
150.0000;5514.3570
151.0000;5539.6070
152.0000;5555.9160
153.0000;5568.0270
154.0000;5571.7220
155.0000;5569.5100
156.0000;5571.7530
157.0000;5577.9360
158.0000;5584.5020
159.0000;5589.1540
160.0000;5591.3410
161.0000;5596.2230
162.0000;5610.9620
163.0000;5634.0310
164.0000;5660.1240
165.0000;5683.2540
166.0000;5700.6140
167.0000;5715.2290
168.0000;5738.6320
169.0000;5764.8660
170.0000;5787.5130
171.0000;5804.4720
172.0000;5811.4070
173.0000;5812.1040
174.0000;5815.9830
175.0000;5820.8910
176.0000;5827.2870
177.0000;5840.6200
178.0000;5857.7920
179.0000;5874.2740
180.0000;5884.5950
181.0000;5887.5540
182.0000;5891.1210
183.0000;5908.5890
184.0000;5935.2030
185.0000;5958.8090
186.0000;5971.6010
187.0000;5970.9940
188.0000;5969.5720
189.0000;5984.7350
190.0000;6009.3110
191.0000;6033.8960
192.0000;6052.1330
193.0000;6059.4790
194.0000;6059.6750
195.0000;6057.5210
196.0000;6050.6750
197.0000;6045.9940
198.0000;6052.3510
199.0000;6066.7040
200.0000;6080.9730
201.0000;6088.1110
202.0000;6088.8230
203.0000;6087.6350
204.0000;6090.3120
205.0000;6093.8240
206.0000;6097.4780
207.0000;6099.9190
208.0000;6102.3640
209.0000;6107.7300
210.0000;6119.1520
211.0000;6133.5190
212.0000;6149.3420
213.0000;6164.8790
214.0000;6177.8090
215.0000;6191.6000
216.0000;6211.7890
217.0000;6230.1980
218.0000;6245.5300
219.0000;6258.5330
220.0000;6266.6310
221.0000;6277.5880
222.0000;6299.3250
223.0000;6322.4240
224.0000;6342.0760
225.0000;6356.2530
226.0000;6361.8310
227.0000;6364.7790
228.0000;6366.8440
229.0000;6368.6240
230.0000;6378.4730
231.0000;6401.8540
232.0000;6429.9440
233.0000;6453.5110
234.0000;6465.3520
235.0000;6470.4070
236.0000;6480.9050
237.0000;6503.6610
238.0000;6526.2320
239.0000;6543.4610
240.0000;6550.3660
241.0000;6551.4620
242.0000;6557.8570
243.0000;6572.9230
244.0000;6588.9230
245.0000;6603.7650
246.0000;6614.8260
247.0000;6621.3140
248.0000;6627.0580
249.0000;6630.7570
250.0000;6631.1830
251.0000;6630.4020
252.0000;6627.9780
253.0000;6626.5410
254.0000;6629.9800
255.0000;6638.7060
256.0000;6649.7640
257.0000;6662.4190
258.0000;6674.1560
259.0000;6680.6050
260.0000;6676.9750
261.0000;6663.9070
262.0000;6652.8830
263.0000;6655.9220
264.0000;6673.6130
265.0000;6699.9950
266.0000;6733.0690
267.0000;6766.9280
268.0000;6792.5580
269.0000;6805.2600
270.0000;6800.3980
271.0000;6790.6190
272.0000;6790.5830
273.0000;6794.5660
274.0000;6801.8670
275.0000;6810.8190
276.0000;6822.7710
277.0000;6839.0000
278.0000;6862.5870
279.0000;6887.6520
280.0000;6911.6920
281.0000;6935.7660
282.0000;6952.6210
283.0000;6965.4360
284.0000;6977.0900
285.0000;6982.7390
286.0000;6989.2730
287.0000;7002.1490
288.0000;7013.3000
289.0000;7020.3540
290.0000;7019.5990
291.0000;7017.0020
292.0000;7023.6730
293.0000;7045.0890
294.0000;7068.7430
295.0000;7083.8640
296.0000;7083.9570
297.0000;7078.3510
298.0000;7080.3230
299.0000;7092.3810
300.0000;7108.7710
301.0000;7127.9890
302.0000;7146.4370
303.0000;7162.6070
304.0000;7178.4310
305.0000;7189.8620
306.0000;7196.1710
307.0000;7201.5680
308.0000;7203.0960
309.0000;7202.4360
310.0000;7203.1160
311.0000;7204.6780
312.0000;7209.3910
313.0000;7221.1010
314.0000;7237.6330
315.0000;7252.8820
316.0000;7261.6880
317.0000;7265.4790
318.0000;7272.8680
319.0000;7298.2950
320.0000;7327.1590
321.0000;7348.6830
322.0000;7353.1010
323.0000;7344.7490
324.0000;7339.9330
325.0000;7352.3040
326.0000;7371.1480
327.0000;7390.2330
328.0000;7405.4310
329.0000;7416.5870
330.0000;7428.8190
331.0000;7443.7870
332.0000;7456.3590
333.0000;7466.9670
334.0000;7474.5150
335.0000;7478.9730
336.0000;7485.2270
337.0000;7492.6880
338.0000;7501.9010
339.0000;7516.5450
340.0000;7536.1790
341.0000;7556.2750
342.0000;7577.0510
343.0000;7595.2950
344.0000;7611.3640
345.0000;7632.7170
346.0000;7654.3440
347.0000;7672.3800
348.0000;7692.6820
349.0000;7707.6550
350.0000;7714.2830
351.0000;7715.1780
352.0000;7706.7330
353.0000;7697.2170
354.0000;7692.1950
355.0000;7692.2720
356.0000;7699.3010
357.0000;7715.2790
358.0000;7736.8250
359.0000;7759.0490
360.0000;7782.4870
361.0000;7796.9800
362.0000;7799.8390
363.0000;7785.8320
364.0000;7764.1000
365.0000;7752.1260
366.0000;7760.0670
367.0000;7776.7250
368.0000;7788.8420
369.0000;7792.6340
370.0000;7792.8640
371.0000;7792.6080
372.0000;7791.7480
373.0000;7795.1990
374.0000;7811.6530
375.0000;7838.6590
376.0000;7864.8960
377.0000;7877.7200
378.0000;7875.7670
379.0000;7871.6900
380.0000;7880.7000
381.0000;7896.7940
382.0000;7915.0830
383.0000;7935.9750
384.0000;7952.8040
385.0000;7963.8000
386.0000;7968.6920
387.0000;7964.7100
388.0000;7959.7350
389.0000;7958.0560
390.0000;7959.9950
391.0000;7969.3130
392.0000;7989.8810
393.0000;8013.7580
394.0000;8034.6770
395.0000;8045.6780
396.0000;8052.5020
397.0000;8065.8340
398.0000;8087.8040
399.0000;8108.7890
400.0000;8124.9920
401.0000;8133.2880
402.0000;8138.4880
403.0000;8152.1140
404.0000;8170.5550
405.0000;8187.3370
406.0000;8203.4380
407.0000;8213.1930
408.0000;8217.5400
409.0000;8217.1660
410.0000;8212.2710
411.0000;8212.2260
412.0000;8228.7060
413.0000;8253.3140
414.0000;8274.3230
415.0000;8280.7980
416.0000;8280.1590
417.0000;8287.0730
418.0000;8312.3440
419.0000;8340.2400
420.0000;8357.1790
421.0000;8354.2670
422.0000;8343.0440
423.0000;8342.6830
424.0000;8357.5970
425.0000;8376.3800
426.0000;8389.1670
427.0000;8392.9190
428.0000;8394.3480
429.0000;8402.8440
430.0000;8415.5840
431.0000;8427.0020
432.0000;8436.3550
433.0000;8440.4570
434.0000;8440.8610
435.0000;8440.1800
436.0000;8437.0880
437.0000;8435.3940
438.0000;8437.0630
439.0000;8442.5220
440.0000;8452.6550
441.0000;8468.2690
442.0000;8485.7310
443.0000;8501.8600
444.0000;8515.7120
445.0000;8523.7030
446.0000;8528.5270
447.0000;8529.0050
448.0000;8525.6960
449.0000;8522.0580
450.0000;8518.7810
451.0000;8520.6310
452.0000;8532.7950
453.0000;8554.8910
454.0000;8579.8740
455.0000;8604.8930
456.0000;8625.3650
457.0000;8642.9500
458.0000;8662.9190
459.0000;8678.2140
460.0000;8692.6270
461.0000;8712.8660
462.0000;8731.4650
463.0000;8751.8180
464.0000;8775.6840
465.0000;8797.7190
466.0000;8821.5550
467.0000;8845.9380
468.0000;8868.1760
469.0000;8893.5990
470.0000;8920.8940
471.0000;8948.2920
472.0000;8983.1970
473.0000;9020.2250
474.0000;9057.7790
475.0000;9106.8750
476.0000;9154.0460
477.0000;9190.0470
478.0000;9219.4810
479.0000;9228.1120
480.0000;9224.4000
481.0000;9222.7900
482.0000;9212.7100
483.0000;9201.6520
484.0000;9197.0510
485.0000;9191.6740
486.0000;9177.9590
487.0000;9151.5730
488.0000;9124.6980
489.0000;9106.8070
490.0000;9104.2560
491.0000;9107.4330
492.0000;9099.0740
493.0000;9080.6700
494.0000;9064.5470
495.0000;9057.5460
496.0000;9062.2560
497.0000;9072.9720
498.0000;9081.2760
499.0000;9090.5210
500.0000;9102.2000
501.0000;9121.3340
502.0000;9139.1910
503.0000;9150.2750
504.0000;9150.2120
505.0000;9141.4780
506.0000;9134.5210
507.0000;9134.1120
508.0000;9137.0780
509.0000;9142.2030
510.0000;9149.3350
511.0000;9156.0660
512.0000;9158.7610
513.0000;9156.8460
514.0000;9156.4730
515.0000;9165.0460
516.0000;9180.1360
517.0000;9195.8720
518.0000;9208.3950
519.0000;9215.1330
520.0000;9217.3630
521.0000;9216.0070
522.0000;9211.1650
523.0000;9209.9520
524.0000;9218.0940
525.0000;9228.0390
526.0000;9232.2230
527.0000;9226.3370
528.0000;9221.3610
529.0000;9230.6740
530.0000;9255.0900
531.0000;9281.4650
532.0000;9298.5760
533.0000;9303.6280
534.0000;9304.6580
535.0000;9310.6760
536.0000;9318.1660
537.0000;9330.0000
538.0000;9349.0300
539.0000;9372.1790
540.0000;9401.5180
541.0000;9440.4270
542.0000;9476.2660
543.0000;9501.7540
544.0000;9511.4420
545.0000;9508.9790
546.0000;9511.2710
547.0000;9518.4060
548.0000;9524.2560
549.0000;9527.4680
550.0000;9527.4890
551.0000;9529.6190
552.0000;9539.6810
553.0000;9555.4990
554.0000;9572.4000
555.0000;9589.3170
556.0000;9603.7260
557.0000;9617.1560
558.0000;9631.5130
559.0000;9642.7850
560.0000;9653.9840
561.0000;9665.2080
562.0000;9673.9380
563.0000;9684.1130
564.0000;9694.0440
565.0000;9698.6610
566.0000;9695.6600
567.0000;9684.2560
568.0000;9673.4000
569.0000;9670.7990
570.0000;9675.7230
571.0000;9683.6040
572.0000;9691.6330
573.0000;9699.2340
574.0000;9705.1790
575.0000;9709.3210
576.0000;9708.6200
577.0000;9702.4450
578.0000;9690.1300
579.0000;9678.5730
580.0000;9676.8280
581.0000;9686.5260
582.0000;9700.1160
583.0000;9705.7820
584.0000;9706.4790
585.0000;9711.1530
586.0000;9732.0830
587.0000;9757.9310
588.0000;9778.0980
589.0000;9782.1950
590.0000;9775.8940
591.0000;9774.1390
592.0000;9783.9120
593.0000;9796.2050
594.0000;9808.0160
595.0000;9816.3590
596.0000;9820.3330
597.0000;9820.0900
598.0000;9814.4360
599.0000;9808.7490
600.0000;9810.1880
601.0000;9815.7160
602.0000;9819.5770
603.0000;9814.9380
604.0000;9807.6820
605.0000;9804.1280
606.0000;9808.4200
607.0000;9817.5540
608.0000;9826.1070
609.0000;9832.1510
610.0000;9840.4240
611.0000;9854.6220
612.0000;9874.5520
613.0000;9898.8990
614.0000;9932.0940
615.0000;9967.0740
616.0000;9999.7050
617.0000;10033.5000
618.0000;10059.6700
619.0000;10087.4700
620.0000;10125.1700
621.0000;10158.3800
622.0000;10192.7100
623.0000;10223.5700
624.0000;10246.8800
625.0000;10273.5500
626.0000;10297.5300
627.0000;10320.4300
628.0000;10355.9200
629.0000;10393.7700
630.0000;10429.0500
631.0000;10472.1800
632.0000;10504.2800
633.0000;10525.3200
634.0000;10536.8500
635.0000;10531.5000
636.0000;10522.1600
637.0000;10513.5400
638.0000;10495.8700
639.0000;10464.8100
640.0000;10423.2500
641.0000;10384.5900
642.0000;10353.7600
643.0000;10338.7200
644.0000;10328.7300
645.0000;10303.8600
646.0000;10282.7700
647.0000;10272.5400
648.0000;10280.5700
649.0000;10296.2700
650.0000;10296.7300
651.0000;10272.6200
652.0000;10245.2500
653.0000;10234.1800
654.0000;10243.6500
655.0000;10260.0200
656.0000;10268.7500
657.0000;10273.0900
658.0000;10279.0000
659.0000;10293.2400
660.0000;10308.5500
661.0000;10321.0300
662.0000;10329.4100
663.0000;10331.1600
664.0000;10330.7400
665.0000;10328.2700
666.0000;10320.9400
667.0000;10307.8400
668.0000;10291.3400
669.0000;10277.3600
670.0000;10269.4600
671.0000;10271.5300
672.0000;10280.8000
673.0000;10296.0200
674.0000;10313.5300
675.0000;10324.4000
676.0000;10322.1000
677.0000;10314.9400
678.0000;10316.4300
679.0000;10328.3800
680.0000;10340.8600
681.0000;10345.7500
682.0000;10343.2400
683.0000;10343.0200
684.0000;10354.2600
685.0000;10372.5100
686.0000;10393.7700
687.0000;10418.3400
688.0000;10436.6900
689.0000;10443.3100
690.0000;10432.6400
691.0000;10416.8100
692.0000;10414.1600
693.0000;10426.7200
694.0000;10446.5200
695.0000;10467.5300
696.0000;10487.8900
697.0000;10505.9700
698.0000;10521.3700
699.0000;10531.5100
700.0000;10545.1400
701.0000;10566.3800
702.0000;10586.7100
703.0000;10606.7700
704.0000;10621.4900
705.0000;10629.2300
706.0000;10632.0900
707.0000;10628.4600
708.0000;10628.2800
709.0000;10645.2000
710.0000;10668.9700
711.0000;10688.0500
712.0000;10693.5900
713.0000;10691.5500
714.0000;10695.5800
715.0000;10708.6800
716.0000;10721.5300
717.0000;10728.9600
718.0000;10729.1100
719.0000;10727.4200
720.0000;10727.6800
721.0000;10731.1900
722.0000;10744.3300
723.0000;10774.7600
724.0000;10807.9100
725.0000;10828.7200
726.0000;10827.1600
727.0000;10815.0500
728.0000;10812.9500
729.0000;10821.2300
730.0000;10835.0600
731.0000;10856.5400
732.0000;10878.9800
733.0000;10891.5500
734.0000;10884.8900
735.0000;10864.8600
736.0000;10848.4300
737.0000;10844.4400
738.0000;10847.3300
739.0000;10850.7300
740.0000;10854.7500
741.0000;10860.3300
742.0000;10863.2900
743.0000;10866.4600
744.0000;10877.0000
745.0000;10909.8100
746.0000;10943.9800
747.0000;10960.7100
748.0000;10945.5900
749.0000;10915.1000
750.0000;10894.2900
751.0000;10889.2100
752.0000;10890.7100
753.0000;10886.0400
754.0000;10882.2500
755.0000;10888.2000
756.0000;10914.7800
757.0000;10947.6900
758.0000;10966.8300
759.0000;10956.5100
760.0000;10933.6400
761.0000;10922.4000
762.0000;10928.9600
763.0000;10941.2400
764.0000;10948.1300
765.0000;10951.4900
766.0000;10957.8000
767.0000;10974.8000
768.0000;10993.2600
769.0000;11005.9000
770.0000;11006.2600
771.0000;10999.7300
772.0000;10997.6100
773.0000;11001.2200
774.0000;11007.6000
775.0000;11015.2200
776.0000;11023.7500
777.0000;11032.0000
778.0000;11044.1400
779.0000;11051.8600
780.0000;11050.7200
781.0000;11034.8300
782.0000;11017.8200
783.0000;11015.2000
784.0000;11031.5400
785.0000;11057.7600
786.0000;11083.5600
787.0000;11107.4800
788.0000;11126.4000
789.0000;11141.1900
790.0000;11148.2000
791.0000;11159.5100
792.0000;11178.6800
793.0000;11197.8600
794.0000;11216.2200
795.0000;11230.1600
796.0000;11235.8000
797.0000;11231.6100
798.0000;11219.8800
799.0000;11218.1400
800.0000;11242.4500
801.0000;11276.6700
802.0000;11305.6900
803.0000;11318.8900
804.0000;11321.4300
805.0000;11323.3600
806.0000;11322.0600
807.0000;11320.0100
808.0000;11323.9400
809.0000;11330.5000
810.0000;11336.0100
811.0000;11337.3100
812.0000;11337.6700
813.0000;11342.1900
814.0000;11352.2700
815.0000;11363.1600
816.0000;11372.9600
817.0000;11379.2500
818.0000;11380.4400
819.0000;11373.6300
820.0000;11363.9700
821.0000;11364.4000
822.0000;11381.6300
823.0000;11408.6400
824.0000;11436.4800
825.0000;11459.6000
826.0000;11478.2300
827.0000;11498.7200
828.0000;11510.3700
829.0000;11510.3300
830.0000;11493.8700
831.0000;11470.6600
832.0000;11464.2000
833.0000;11486.5100
834.0000;11514.7500
835.0000;11522.3800
836.0000;11508.1700
837.0000;11490.8400
838.0000;11491.7400
839.0000;11501.3500
840.0000;11505.3700
841.0000;11492.7100
842.0000;11477.0500
843.0000;11472.4200
844.0000;11483.1800
845.0000;11499.9200
846.0000;11511.6000
847.0000;11517.8900
848.0000;11522.2200
849.0000;11528.8600
850.0000;11533.3300
851.0000;11535.7900
852.0000;11535.2900
853.0000;11534.9300
854.0000;11542.3200
855.0000;11555.5900
856.0000;11564.5000
857.0000;11554.2900
858.0000;11535.0600
859.0000;11530.4100
860.0000;11559.0200
861.0000;11599.0800
862.0000;11624.3600
863.0000;11624.9200
864.0000;11617.6700
865.0000;11623.2400
866.0000;11636.9400
867.0000;11653.1200
868.0000;11671.5900
869.0000;11686.6400
870.0000;11696.0000
871.0000;11695.8400
872.0000;11694.3800
873.0000;11707.8300
874.0000;11733.4900
875.0000;11756.2800
876.0000;11763.1000
877.0000;11758.7900
878.0000;11760.9900
879.0000;11782.0600
880.0000;11807.9000
881.0000;11830.6300
882.0000;11844.6900
883.0000;11848.1400
884.0000;11839.1700
885.0000;11821.4300
886.0000;11816.7400
887.0000;11845.4200
888.0000;11888.6900
889.0000;11921.6600
890.0000;11931.4000
891.0000;11934.4700
892.0000;11954.6800
893.0000;11984.4200
894.0000;12012.4000
895.0000;12038.0900
896.0000;12051.6700
897.0000;12056.2300
898.0000;12050.0400
899.0000;12039.4800
900.0000;12040.1400
901.0000;12053.0500
902.0000;12070.6800
903.0000;12086.6900
904.0000;12101.7200
905.0000;12118.7500
906.0000;12139.7800
907.0000;12158.9200
908.0000;12177.8200
909.0000;12192.7000
910.0000;12204.2200
911.0000;12217.9900
912.0000;12230.3900
913.0000;12246.5600
914.0000;12275.0300
915.0000;12299.9600
916.0000;12311.3800
917.0000;12302.6000
918.0000;12289.4600
919.0000;12297.0800
920.0000;12318.3300
921.0000;12336.7500
922.0000;12337.6000
923.0000;12331.4600
924.0000;12336.6600
925.0000;12359.0500
926.0000;12384.1200
927.0000;12400.9600
928.0000;12406.4800
929.0000;12408.4000
930.0000;12417.1300
931.0000;12425.1200
932.0000;12433.5300
933.0000;12441.4400
934.0000;12447.3300
935.0000;12454.4400
936.0000;12459.6400
937.0000;12459.9500
938.0000;12448.8300
939.0000;12435.8300
940.0000;12439.9100
941.0000;12471.8000
942.0000;12513.0100
943.0000;12540.4700
944.0000;12548.5600
945.0000;12547.3300
946.0000;12547.7800
947.0000;12547.3000
948.0000;12557.6000
949.0000;12586.8000
950.0000;12617.3300
951.0000;12632.9800
952.0000;12627.1700
953.0000;12616.7500
954.0000;12620.8100
955.0000;12632.4300
956.0000;12646.4100
957.0000;12658.2900
958.0000;12669.9400
959.0000;12685.8800
960.0000;12703.0500
961.0000;12718.5800
962.0000;12732.5800
963.0000;12741.4100
964.0000;12750.3000
965.0000;12762.1900
966.0000;12772.7300
967.0000;12783.7600
968.0000;12793.7300
969.0000;12801.1200
970.0000;12803.3200
971.0000;12805.4200
972.0000;12825.0700
973.0000;12874.4600
974.0000;12931.1900
975.0000;12978.0200
976.0000;13000.1300
977.0000;13004.0800
978.0000;13003.4300
979.0000;12992.7100
980.0000;12989.5500
981.0000;13007.3000
982.0000;13032.2400
983.0000;13048.8300
984.0000;13053.2200
985.0000;13057.7500
986.0000;13079.0800
987.0000;13106.6000
988.0000;13132.2600
989.0000;13148.7800
990.0000;13157.4500
991.0000;13168.9500
992.0000;13180.9200
993.0000;13190.1700
994.0000;13198.6800
995.0000;13203.3800
996.0000;13207.4300
997.0000;13211.1100
998.0000;13217.9500
999.0000;13235.1300
1000.0000;13262.7200
1001.0000;13292.1000
1002.0000;13321.6300
1003.0000;13343.0100
1004.0000;13355.6600
1005.0000;13359.7000
1006.0000;13350.4700
1007.0000;13333.8700
1008.0000;13312.0800
1009.0000;13294.6000
1010.0000;13288.5800
1011.0000;13297.9000
1012.0000;13318.2300
1013.0000;13348.1600
1014.0000;13376.8700
1015.0000;13392.4000
1016.0000;13389.8000
1017.0000;13387.4700
1018.0000;13410.2700
1019.0000;13438.4800
1020.0000;13451.6100
1021.0000;13436.9300
1022.0000;13418.2600
1023.0000;13424.9400
1024.0000;13455.1600
1025.0000;13485.1600
1026.0000;13495.3600
1027.0000;13494.8500
1028.0000;13500.3800
1029.0000;13516.6600
1030.0000;13536.3900
1031.0000;13560.8300
1032.0000;13583.8500
1033.0000;13596.4700
1034.0000;13591.9200
1035.0000;13577.5000
1036.0000;13575.8000
