Raman Shift ; Dark Subtracted #1
98.0000;6201.0880
99.0000;6190.0440
100.0000;6168.4780
101.0000;6137.2880
102.0000;6100.1990
103.0000;6067.6530
104.0000;6046.0890
105.0000;6041.8670
106.0000;6031.1840
107.0000;5992.6250
108.0000;5946.8960
109.0000;5898.3390
110.0000;5861.4210
111.0000;5833.5930
112.0000;5816.9570
113.0000;5814.2890
114.0000;5808.6910
115.0000;5807.9180
116.0000;5805.7830
117.0000;5801.5350
118.0000;5794.8770
119.0000;5785.3620
120.0000;5773.2080
121.0000;5757.9380
122.0000;5741.0380
123.0000;5721.8260
124.0000;5700.1570
125.0000;5678.0540
126.0000;5644.3610
127.0000;5614.3960
128.0000;5596.0020
129.0000;5596.9220
130.0000;5599.7910
131.0000;5579.6700
132.0000;5556.0790
133.0000;5541.4600
134.0000;5540.0020
135.0000;5537.7740
136.0000;5525.7220
137.0000;5514.5560
138.0000;5505.2480
139.0000;5503.7030
140.0000;5511.0400
141.0000;5528.1540
142.0000;5551.9000
143.0000;5580.4320
144.0000;5607.4250
145.0000;5636.3310
146.0000;5658.8090
147.0000;5665.6370
148.0000;5655.7370
149.0000;5625.1660
150.0000;5578.2390
151.0000;5524.5690
152.0000;5480.2010
153.0000;5455.4580
154.0000;5435.4110
155.0000;5392.4580
156.0000;5350.9170
157.0000;5312.0560
158.0000;5284.8550
159.0000;5265.5530
160.0000;5252.1640
161.0000;5242.2990
162.0000;5215.5050
163.0000;5183.1230
164.0000;5151.1090
165.0000;5126.3150
166.0000;5107.1100
167.0000;5085.5900
168.0000;5071.3760
169.0000;5058.7400
170.0000;5051.0770
171.0000;5039.6550
172.0000;5019.9980
173.0000;5001.3520
174.0000;4983.2240
175.0000;4974.1540
176.0000;4973.7920
177.0000;4983.8850
178.0000;4994.2660
179.0000;4995.8440
180.0000;4990.3330
181.0000;4979.1850
182.0000;4964.7660
183.0000;4954.2000
184.0000;4951.9710
185.0000;4954.7250
186.0000;4957.2540
187.0000;4959.6400
188.0000;4957.0590
189.0000;4949.3620
190.0000;4941.5550
191.0000;4937.1040
192.0000;4934.1600
193.0000;4928.8660
194.0000;4923.7200
195.0000;4919.9720
196.0000;4918.3560
197.0000;4912.6990
198.0000;4895.7420
199.0000;4878.6460
200.0000;4871.9580
201.0000;4876.2800
202.0000;4877.1980
203.0000;4868.6140
204.0000;4859.5320
205.0000;4855.6880
206.0000;4855.5210
207.0000;4850.9940
208.0000;4844.2120
209.0000;4845.2470
210.0000;4860.5290
211.0000;4877.8040
212.0000;4879.9320
213.0000;4873.1850
214.0000;4876.4270
215.0000;4892.9860
216.0000;4909.2640
217.0000;4915.8610
218.0000;4915.4450
219.0000;4914.9050
220.0000;4913.4500
221.0000;4915.3300
222.0000;4922.2120
223.0000;4929.1170
224.0000;4931.0300
225.0000;4931.1040
226.0000;4936.9610
227.0000;4946.4800
228.0000;4950.7020
229.0000;4945.5750
230.0000;4935.6660
231.0000;4926.7900
232.0000;4920.7690
233.0000;4919.9250
234.0000;4925.4040
235.0000;4930.6790
236.0000;4930.3390
237.0000;4928.9350
238.0000;4932.9120
239.0000;4937.0580
240.0000;4932.9450
241.0000;4919.1170
242.0000;4903.8610
243.0000;4890.8650
244.0000;4887.0980
245.0000;4896.5830
246.0000;4915.7440
247.0000;4926.9120
248.0000;4922.2050
249.0000;4915.5500
250.0000;4918.5510
251.0000;4926.7130
252.0000;4937.9520
253.0000;4949.9670
254.0000;4957.9420
255.0000;4959.0290
256.0000;4957.4000
257.0000;4959.2850
258.0000;4962.8570
259.0000;4970.3720
260.0000;4980.1280
261.0000;4988.1040
262.0000;4992.0230
263.0000;4993.7920
264.0000;4998.1880
265.0000;5002.5670
266.0000;5008.6070
267.0000;5014.6620
268.0000;5016.9520
269.0000;5013.0540
270.0000;5009.7620
271.0000;5018.3050
272.0000;5029.4290
273.0000;5027.4260
274.0000;5011.8410
275.0000;4999.4150
276.0000;5001.4310
277.0000;5008.7470
278.0000;5010.1480
279.0000;5009.6930
280.0000;5011.7080
281.0000;5015.9790
282.0000;5019.3850
283.0000;5019.6680
284.0000;5019.3130
285.0000;5022.1870
286.0000;5026.2080
287.0000;5029.9840
288.0000;5032.0910
289.0000;5031.1850
290.0000;5026.1270
291.0000;5021.4140
292.0000;5022.1660
293.0000;5027.3740
294.0000;5032.1670
295.0000;5035.3480
296.0000;5038.2920
297.0000;5040.1150
298.0000;5046.0620
299.0000;5063.8690
300.0000;5086.8880
301.0000;5106.8970
302.0000;5117.9510
303.0000;5122.4420
304.0000;5122.2280
305.0000;5119.0210
306.0000;5121.0460
307.0000;5127.4280
308.0000;5139.0140
309.0000;5153.8800
310.0000;5168.8510
311.0000;5181.1210
312.0000;5187.4780
313.0000;5191.3510
314.0000;5189.4730
315.0000;5186.8480
316.0000;5184.1560
317.0000;5182.5590
318.0000;5183.0040
319.0000;5187.1510
320.0000;5196.3470
321.0000;5207.4550
322.0000;5216.1700
323.0000;5219.9910
324.0000;5222.2310
325.0000;5224.5290
326.0000;5224.8190
327.0000;5226.1140
328.0000;5224.1750
329.0000;5214.2250
330.0000;5198.7040
331.0000;5190.7470
332.0000;5196.5710
333.0000;5207.8000
334.0000;5215.5720
335.0000;5219.3670
336.0000;5215.8180
337.0000;5207.2490
338.0000;5207.1250
339.0000;5220.9700
340.0000;5237.1740
341.0000;5244.6500
342.0000;5249.5080
343.0000;5264.5700
344.0000;5283.5080
345.0000;5297.7060
346.0000;5301.4030
347.0000;5300.5770
348.0000;5304.2340
349.0000;5301.5410
350.0000;5281.4700
351.0000;5257.7730
352.0000;5260.5800
353.0000;5296.6410
354.0000;5333.3350
355.0000;5348.0790
356.0000;5350.5040
357.0000;5357.1940
358.0000;5361.6660
359.0000;5368.9650
360.0000;5377.7460
361.0000;5385.2270
362.0000;5389.3370
363.0000;5392.3060
364.0000;5398.7190
365.0000;5405.9980
366.0000;5415.6160
367.0000;5424.9880
368.0000;5434.5400
369.0000;5442.6850
370.0000;5445.6600
371.0000;5442.9170
372.0000;5435.4030
373.0000;5429.4660
374.0000;5426.3640
375.0000;5427.5400
376.0000;5433.5150
377.0000;5437.6120
378.0000;5434.5720
379.0000;5427.0070
380.0000;5415.8540
381.0000;5406.6040
382.0000;5407.0970
383.0000;5418.1380
384.0000;5424.7670
385.0000;5417.6690
386.0000;5407.7600
387.0000;5404.6020
388.0000;5407.2620
389.0000;5414.3620
390.0000;5423.7760
391.0000;5428.7560
392.0000;5425.3470
393.0000;5420.2400
394.0000;5420.2310
395.0000;5420.0350
396.0000;5413.3820
397.0000;5404.8130
398.0000;5403.3700
399.0000;5411.1430
400.0000;5420.6180
401.0000;5426.1410
402.0000;5430.2090
403.0000;5436.2620
404.0000;5440.9030
405.0000;5443.4360
406.0000;5443.5000
407.0000;5446.0400
408.0000;5452.8360
409.0000;5458.9380
410.0000;5460.8430
411.0000;5461.2200
412.0000;5466.8520
413.0000;5473.7480
414.0000;5475.9230
415.0000;5471.5750
416.0000;5466.4320
417.0000;5464.8420
418.0000;5461.0120
419.0000;5449.8030
420.0000;5435.6810
421.0000;5420.5810
422.0000;5410.1610
423.0000;5408.8100
424.0000;5418.7480
425.0000;5431.4840
426.0000;5440.2760
427.0000;5438.4120
428.0000;5417.0670
429.0000;5386.8460
430.0000;5373.7550
431.0000;5383.6040
432.0000;5392.3210
433.0000;5387.6220
434.0000;5380.2860
435.0000;5377.0510
436.0000;5374.8880
437.0000;5368.5910
438.0000;5361.8610
439.0000;5361.3500
440.0000;5368.6670
441.0000;5372.8330
442.0000;5365.7900
443.0000;5357.2610
444.0000;5356.5090
445.0000;5361.2990
446.0000;5366.0930
447.0000;5370.2010
448.0000;5373.2160
449.0000;5374.3600
450.0000;5374.4250
451.0000;5374.0860
452.0000;5375.0080
453.0000;5381.2650
454.0000;5388.8840
455.0000;5389.9260
456.0000;5384.6850
457.0000;5387.4120
458.0000;5404.2330
459.0000;5415.3980
460.0000;5402.1170
461.0000;5384.8730
462.0000;5390.8440
463.0000;5412.8400
464.0000;5429.2010
465.0000;5434.4300
466.0000;5437.4520
467.0000;5441.4260
468.0000;5446.3350
469.0000;5458.7130
470.0000;5468.7350
471.0000;5466.4860
472.0000;5457.8940
473.0000;5468.0360
474.0000;5498.6490
475.0000;5524.4780
476.0000;5529.2610
477.0000;5523.7000
478.0000;5523.3330
479.0000;5521.2850
480.0000;5517.8980
481.0000;5515.3890
482.0000;5518.6310
483.0000;5528.5940
484.0000;5539.0540
485.0000;5546.9930
486.0000;5547.6000
487.0000;5537.1510
488.0000;5522.5400
489.0000;5521.1190
490.0000;5528.6070
491.0000;5523.2750
492.0000;5503.0740
493.0000;5490.3580
494.0000;5498.7780
495.0000;5514.5000
496.0000;5521.5120
497.0000;5523.0030
498.0000;5522.2710
499.0000;5518.4390
500.0000;5513.3800
501.0000;5509.4250
502.0000;5512.8000
503.0000;5526.7790
504.0000;5543.8050
505.0000;5557.9820
506.0000;5563.4640
507.0000;5555.6440
508.0000;5540.7660
509.0000;5543.5230
510.0000;5566.5880
511.0000;5582.7420
512.0000;5575.5880
513.0000;5567.2970
514.0000;5577.5900
515.0000;5595.2870
516.0000;5610.1530
517.0000;5620.4920
518.0000;5629.1680
519.0000;5633.8740
520.0000;5638.0720
521.0000;5642.9430
522.0000;5651.2360
523.0000;5669.2890
524.0000;5683.0780
525.0000;5677.1710
526.0000;5661.2920
527.0000;5664.5930
528.0000;5686.4750
529.0000;5704.1840
530.0000;5707.8580
531.0000;5700.8910
532.0000;5686.0870
533.0000;5668.7250
534.0000;5657.4850
535.0000;5655.7280
536.0000;5660.3960
537.0000;5670.7140
538.0000;5676.9410
539.0000;5675.4090
540.0000;5668.4900
541.0000;5657.3600
542.0000;5649.1660
543.0000;5655.2040
544.0000;5660.8210
545.0000;5642.4180
546.0000;5610.0520
547.0000;5587.3600
548.0000;5581.8690
549.0000;5579.6840
550.0000;5576.4030
551.0000;5573.8980
552.0000;5569.4790
553.0000;5564.1650
554.0000;5553.9410
555.0000;5545.9290
556.0000;5547.7640
557.0000;5558.4440
558.0000;5563.9410
559.0000;5560.0090
560.0000;5555.6790
561.0000;5555.6560
562.0000;5558.4750
563.0000;5563.2450
564.0000;5569.5220
565.0000;5578.4790
566.0000;5584.2600
567.0000;5578.3400
568.0000;5560.7490
569.0000;5548.8320
570.0000;5550.2740
571.0000;5559.6180
572.0000;5573.0930
573.0000;5584.2050
574.0000;5582.1750
575.0000;5574.5800
576.0000;5581.3790
577.0000;5598.1080
578.0000;5610.3850
579.0000;5612.9500
580.0000;5610.0730
581.0000;5603.5980
582.0000;5600.2970
583.0000;5607.4640
584.0000;5620.9010
585.0000;5632.7780
586.0000;5643.8770
587.0000;5660.3360
588.0000;5676.4650
589.0000;5688.3450
590.0000;5692.4370
591.0000;5694.5990
592.0000;5699.0480
593.0000;5704.3690
594.0000;5715.1800
595.0000;5721.0370
596.0000;5710.7820
597.0000;5693.7710
598.0000;5694.5720
599.0000;5711.5710
600.0000;5714.3560
601.0000;5695.0000
602.0000;5682.4940
603.0000;5693.6010
604.0000;5704.6130
605.0000;5691.5110
606.0000;5671.0420
607.0000;5663.0210
608.0000;5665.7880
609.0000;5669.6250
610.0000;5672.6730
611.0000;5670.6560
612.0000;5660.1840
613.0000;5628.7500
614.0000;5567.8080
615.0000;5518.0470
616.0000;5508.0260
617.0000;5522.7120
618.0000;5512.0460
619.0000;5495.9300
620.0000;5497.8940
621.0000;5516.1900
622.0000;5524.4800
623.0000;5515.6310
624.0000;5507.1280
625.0000;5508.1500
626.0000;5510.6430
627.0000;5508.5790
628.0000;5506.3840
629.0000;5508.6460
630.0000;5511.5760
631.0000;5507.4100
632.0000;5498.8270
633.0000;5499.1610
634.0000;5508.8580
635.0000;5507.0040
636.0000;5483.7190
637.0000;5459.8250
638.0000;5447.2850
639.0000;5449.2370
640.0000;5464.7520
641.0000;5483.3870
642.0000;5480.6460
643.0000;5461.8970
644.0000;5455.9870
645.0000;5465.4720
646.0000;5470.3550
647.0000;5464.1510
648.0000;5452.8010
649.0000;5439.2200
650.0000;5429.3290
651.0000;5427.5390
652.0000;5432.0570
653.0000;5434.2410
654.0000;5434.3660
655.0000;5429.8260
656.0000;5421.9840
657.0000;5418.1140
658.0000;5419.5180
659.0000;5413.0000
660.0000;5393.0040
661.0000;5378.8660
662.0000;5385.1530
663.0000;5395.2240
664.0000;5386.1120
665.0000;5370.7460
666.0000;5364.4580
667.0000;5365.4770
668.0000;5362.1750
669.0000;5355.7000
670.0000;5352.6200
671.0000;5354.1170
672.0000;5346.3800
673.0000;5321.9720
674.0000;5303.7540
675.0000;5309.2800
676.0000;5324.3850
677.0000;5323.7890
678.0000;5320.0540
679.0000;5333.6030
680.0000;5352.5160
681.0000;5345.4250
682.0000;5313.7890
683.0000;5300.4040
684.0000;5318.9430
685.0000;5328.4350
686.0000;5305.6160
687.0000;5280.4310
688.0000;5278.3890
689.0000;5282.7370
690.0000;5269.3360
691.0000;5254.1540
692.0000;5254.6690
693.0000;5266.7970
694.0000;5271.0940
695.0000;5263.1690
696.0000;5242.2190
697.0000;5212.0570
698.0000;5190.4430
699.0000;5189.2520
700.0000;5196.3360
701.0000;5194.7170
702.0000;5197.3800
703.0000;5212.3670
704.0000;5229.8330
705.0000;5240.0670
706.0000;5239.1060
707.0000;5231.8920
708.0000;5219.2700
709.0000;5207.1540
710.0000;5200.8190
711.0000;5202.7040
712.0000;5213.9890
713.0000;5227.3980
714.0000;5236.4850
715.0000;5238.8690
716.0000;5236.8490
717.0000;5227.4660
718.0000;5210.9860
719.0000;5196.4760
720.0000;5195.6260
721.0000;5208.2090
722.0000;5218.8720
723.0000;5222.2330
724.0000;5216.2630
725.0000;5200.6340
726.0000;5187.0610
727.0000;5184.1800
728.0000;5190.1500
729.0000;5202.9210
730.0000;5213.9010
731.0000;5210.2360
732.0000;5198.5650
733.0000;5196.2040
734.0000;5194.1880
735.0000;5170.2400
736.0000;5134.4050
737.0000;5118.6730
738.0000;5130.5910
739.0000;5139.9950
740.0000;5135.5210
741.0000;5127.8000
742.0000;5121.3420
743.0000;5112.3750
744.0000;5097.7610
745.0000;5084.3380
746.0000;5073.1420
747.0000;5069.6090
748.0000;5073.6820
749.0000;5081.0130
750.0000;5075.0140
751.0000;5058.0400
752.0000;5043.2710
753.0000;5038.1120
754.0000;5050.1670
755.0000;5079.4380
756.0000;5098.9080
757.0000;5089.3130
758.0000;5075.1800
759.0000;5076.8330
760.0000;5087.0720
761.0000;5102.5070
762.0000;5117.3880
763.0000;5125.4890
764.0000;5122.2920
765.0000;5111.8350
766.0000;5095.9260
767.0000;5081.5420
768.0000;5074.7050
769.0000;5078.8930
770.0000;5094.4880
771.0000;5105.5670
772.0000;5103.7660
773.0000;5099.9730
774.0000;5100.8920
775.0000;5107.3940
776.0000;5121.9750
777.0000;5138.6610
778.0000;5154.5260
779.0000;5161.7150
780.0000;5156.8640
781.0000;5145.8860
782.0000;5153.6540
783.0000;5174.2800
784.0000;5184.6120
785.0000;5180.4130
786.0000;5176.6700
787.0000;5176.5930
788.0000;5173.1270
789.0000;5164.6610
790.0000;5158.8850
791.0000;5159.8180
792.0000;5169.8910
793.0000;5192.0830
794.0000;5207.8040
795.0000;5195.8190
796.0000;5173.6000
797.0000;5177.3530
798.0000;5192.2880
799.0000;5187.7320
800.0000;5166.6020
801.0000;5144.0840
802.0000;5126.7580
803.0000;5116.5640
804.0000;5117.6160
805.0000;5128.3610
806.0000;5146.3390
807.0000;5154.6030
808.0000;5142.1140
809.0000;5131.1650
810.0000;5142.4050
811.0000;5153.0000
812.0000;5141.7540
813.0000;5123.7160
814.0000;5115.1520
815.0000;5114.7250
816.0000;5116.9620
817.0000;5119.8290
818.0000;5112.8930
819.0000;5099.3540
820.0000;5090.3840
821.0000;5088.9440
822.0000;5085.3250
823.0000;5079.6050
824.0000;5080.1310
825.0000;5089.5550
826.0000;5094.5740
827.0000;5087.1690
828.0000;5080.6110
829.0000;5085.0100
830.0000;5090.0890
831.0000;5085.6070
832.0000;5081.0320
833.0000;5085.3870
834.0000;5095.3250
835.0000;5105.9270
836.0000;5115.0230
837.0000;5124.0610
838.0000;5128.5660
839.0000;5124.0440
840.0000;5115.2640
841.0000;5127.5440
842.0000;5159.4930
843.0000;5181.2030
844.0000;5179.4630
845.0000;5169.7940
846.0000;5159.5270
847.0000;5154.9120
848.0000;5162.4920
849.0000;5172.3950
850.0000;5174.4030
851.0000;5178.9990
852.0000;5196.7530
853.0000;5214.6230
854.0000;5223.9420
855.0000;5223.0650
856.0000;5216.7700
857.0000;5211.3800
858.0000;5226.1700
859.0000;5250.4230
860.0000;5253.0130
861.0000;5237.2480
862.0000;5239.7820
863.0000;5259.7480
864.0000;5266.1280
865.0000;5252.9490
866.0000;5254.2230
867.0000;5279.4310
868.0000;5293.1600
869.0000;5278.7190
870.0000;5265.2680
871.0000;5270.4220
872.0000;5283.7670
873.0000;5298.8340
874.0000;5309.4440
875.0000;5311.7840
876.0000;5302.2910
877.0000;5284.0050
878.0000;5264.0110
879.0000;5252.8860
880.0000;5251.6610
881.0000;5247.8290
882.0000;5247.2400
883.0000;5252.5890
884.0000;5262.9380
885.0000;5274.8300
886.0000;5282.0650
887.0000;5274.5370
888.0000;5252.7300
889.0000;5237.4870
890.0000;5237.1350
891.0000;5241.1000
892.0000;5245.3740
893.0000;5242.7800
894.0000;5229.1350
895.0000;5217.3750
896.0000;5216.1560
897.0000;5216.8720
898.0000;5210.7500
899.0000;5209.8410
900.0000;5222.3260
901.0000;5236.7670
902.0000;5243.2550
903.0000;5238.4420
904.0000;5220.1160
905.0000;5202.6080
906.0000;5210.1240
907.0000;5229.2530
908.0000;5224.3910
909.0000;5207.0680
910.0000;5205.1520
911.0000;5221.6740
912.0000;5255.0830
913.0000;5290.9560
914.0000;5299.7590
915.0000;5274.7580
916.0000;5253.3020
917.0000;5247.1500
918.0000;5256.7650
919.0000;5280.4910
920.0000;5288.4560
921.0000;5266.3510
922.0000;5246.6980
923.0000;5246.5420
924.0000;5260.1550
925.0000;5284.3230
926.0000;5303.9320
927.0000;5304.7460
928.0000;5292.4170
929.0000;5275.2290
930.0000;5264.5500
931.0000;5275.5090
932.0000;5295.7000
933.0000;5305.7240
934.0000;5307.2880
935.0000;5305.8490
936.0000;5299.4410
937.0000;5292.1570
938.0000;5287.4320
939.0000;5289.3160
940.0000;5297.9580
941.0000;5306.2910
942.0000;5315.1230
943.0000;5333.9980
944.0000;5352.5470
945.0000;5351.4920
946.0000;5330.7580
947.0000;5321.3590
948.0000;5327.3000
949.0000;5330.1390
950.0000;5325.9470
951.0000;5314.8800
952.0000;5299.5400
953.0000;5294.9160
954.0000;5306.2300
955.0000;5311.2600
956.0000;5299.9840
957.0000;5282.6290
958.0000;5265.7030
959.0000;5257.2150
960.0000;5263.0390
961.0000;5267.3640
962.0000;5256.1190
963.0000;5247.3070
964.0000;5253.4180
965.0000;5262.8390
966.0000;5265.8570
967.0000;5261.3130
968.0000;5246.0990
969.0000;5233.1670
970.0000;5237.4600
971.0000;5249.7050
972.0000;5252.6890
973.0000;5252.4360
974.0000;5257.7190
975.0000;5261.2740
976.0000;5255.2750
977.0000;5245.1480
978.0000;5242.7000
979.0000;5246.1400
980.0000;5249.7850
981.0000;5248.6950
982.0000;5231.4440
983.0000;5206.8280
984.0000;5196.3240
985.0000;5201.9910
986.0000;5202.8910
987.0000;5203.4360
988.0000;5221.6710
989.0000;5249.2580
990.0000;5252.1900
991.0000;5227.2340
992.0000;5210.5450
993.0000;5211.5100
994.0000;5218.2100
995.0000;5227.5670
996.0000;5230.5510
997.0000;5225.0520
998.0000;5227.6920
999.0000;5242.7340
1000.0000;5259.2490
1001.0000;5269.9940
1002.0000;5271.2940
1003.0000;5262.1190
1004.0000;5271.7940
1005.0000;5313.2830
1006.0000;5328.9620
1007.0000;5292.3930
1008.0000;5248.6060
1009.0000;5226.8060
1010.0000;5222.9320
1011.0000;5235.5920
1012.0000;5246.6330
1013.0000;5236.0290
1014.0000;5231.9150
1015.0000;5252.1670
1016.0000;5274.0020
1017.0000;5280.1050
1018.0000;5274.0030
1019.0000;5261.5350
1020.0000;5242.6170
1021.0000;5220.6310
1022.0000;5204.9360
1023.0000;5201.2430
1024.0000;5205.7140
1025.0000;5204.7640
1026.0000;5206.7170
1027.0000;5218.6770
1028.0000;5221.6280
1029.0000;5191.3640
1030.0000;5161.8000
1031.0000;5171.2630
1032.0000;5197.7770
1033.0000;5208.6600
1034.0000;5204.3640
1035.0000;5183.2530
1036.0000;5162.5680
1037.0000;5170.9480
1038.0000;5190.4410
1039.0000;5186.4650
1040.0000;5171.2500
1041.0000;5163.7490
1042.0000;5161.4290
1043.0000;5161.6690
1044.0000;5159.6080
1045.0000;5138.6250
1046.0000;5118.6190
1047.0000;5126.1170
1048.0000;5153.3300
1049.0000;5173.8540
1050.0000;5183.0770
1051.0000;5182.7660
1052.0000;5168.1320
1053.0000;5141.6180
1054.0000;5116.1690
1055.0000;5110.5020
1056.0000;5123.7300
1057.0000;5134.7600
1058.0000;5141.8540
1059.0000;5141.0790
1060.0000;5136.0670
1061.0000;5143.8790
1062.0000;5154.2870
1063.0000;5141.6140
1064.0000;5118.3160
1065.0000;5119.9180
1066.0000;5137.9860
1067.0000;5136.2600
1068.0000;5122.7300
1069.0000;5124.9680
1070.0000;5138.4590
1071.0000;5142.3630
1072.0000;5142.6950
1073.0000;5159.9370
1074.0000;5186.2190
1075.0000;5205.3860
1076.0000;5216.4750
1077.0000;5243.6850
1078.0000;5270.7040
1079.0000;5271.6530
1080.0000;5251.3540
1081.0000;5249.1690
1082.0000;5263.1850
1083.0000;5277.8870
1084.0000;5288.9920
1085.0000;5293.7600
1086.0000;5291.3680
1087.0000;5294.5080
1088.0000;5297.0840
1089.0000;5282.0180
1090.0000;5262.7600
1091.0000;5271.7700
1092.0000;5301.5930
1093.0000;5318.6050
1094.0000;5321.3590
1095.0000;5327.8160
1096.0000;5329.4590
1097.0000;5316.4550
1098.0000;5294.7700
1099.0000;5279.9690
1100.0000;5276.0000
1101.0000;5272.7700
1102.0000;5278.4410
1103.0000;5299.6840
1104.0000;5327.7960
1105.0000;5348.0250
1106.0000;5351.5660
1107.0000;5339.9070
1108.0000;5322.1050
1109.0000;5327.7460
1110.0000;5347.3370
1111.0000;5353.3710
1112.0000;5346.8910
1113.0000;5334.3910
1114.0000;5322.9910
1115.0000;5325.2050
1116.0000;5337.1630
1117.0000;5345.3560
1118.0000;5345.6830
1119.0000;5335.2350
1120.0000;5316.9340
1121.0000;5297.7230
1122.0000;5285.4680
1123.0000;5279.4920
1124.0000;5285.6710
1125.0000;5298.9070
1126.0000;5314.7190
1127.0000;5321.0020
1128.0000;5323.5820
1129.0000;5339.5310
1130.0000;5351.5000
1131.0000;5342.2860
1132.0000;5329.8290
1133.0000;5344.0930
1134.0000;5361.8070
1135.0000;5357.8250
1136.0000;5349.2280
1137.0000;5354.7770
1138.0000;5367.4520
1139.0000;5380.0130
1140.0000;5399.0950
